Wavelength,Daylight Window,Daylight Direct
198.0,0.0042,0.0036
198.2,0.0013,0.0013
198.4,0.0022,0.0066
198.6,0.0012,0.0056
198.8,0.0031,0.0052
199.0,0.0002,0.0046
199.2,0.0025,0.0043
199.4,0.0008,0.0020
199.6,0.0032,0.0031
199.8,-0.0005,0.0035
200.0,0.0031,0.0064
200.2,0.0007,0.0030
200.4,0.0035,0.0040
200.6,0.0007,0.0029
200.8,0.0022,0.0030
201.0,0.0007,0.0032
201.2,0.0034,0.0052
201.4,0.0016,0.0034
201.6,0.0034,0.0038
201.8,0.0010,0.0023
202.0,0.0029,0.0041
202.2,0.0002,0.0008
202.4,0.0044,0.0049
202.6,0.0009,0.0016
202.8,0.0022,0.0045
203.0,0.0018,0.0050
203.2,0.0022,0.0026
203.4,-0.0004,0.0042
203.6,0.0026,0.0065
203.8,0.0003,0.0045
204.0,0.0049,0.0026
204.2,0.0004,0.0036
204.4,-0.0003,0.0029
204.6,0.0036,0.0029
204.8,0.0015,0.0056
205.0,0.0006,0.0009
205.3,0.0019,0.0061
205.5,0.0038,0.0055
205.7,0.0024,0.0048
205.9,-0.0010,0.0044
206.1,0.0019,0.0043
206.3,-0.0012,0.0045
206.5,0.0034,0.0043
206.7,0.0016,0.0045
206.9,0.0018,0.0043
207.1,-0.0006,0.0033
207.3,0.0016,0.0021
207.5,0.0010,0.0027
207.7,0.0047,0.0072
207.9,-0.0005,0.0028
208.1,0.0013,0.0042
208.3,0.0024,0.0030
208.5,0.0016,0.0059
208.7,0.0009,0.0020
208.9,0.0011,0.0057
209.1,0.0006,0.0020
209.3,0.0027,0.0061
209.5,0.0023,0.0042
209.7,0.0022,0.0044
209.9,0.0014,0.0024
210.1,0.0000,0.0038
210.3,0.0012,0.0024
210.5,0.0048,0.0034
210.7,0.0019,0.0037
210.9,0.0032,0.0036
211.1,0.0020,0.0031
211.3,0.0012,0.0047
211.5,0.0000,0.0036
211.7,0.0007,0.0035
211.9,0.0031,0.0030
212.2,0.0013,0.0020
212.4,0.0019,0.0058
212.6,0.0012,0.0053
212.8,0.0004,0.0048
213.0,0.0012,0.0042
213.2,0.0026,0.0037
213.4,0.0038,0.0044
213.6,0.0019,0.0022
213.8,0.0016,0.0071
214.0,0.0018,0.0021
214.2,0.0006,0.0053
214.4,0.0018,0.0049
214.6,0.0031,0.0053
214.8,0.0010,0.0048
215.0,0.0030,0.0046
215.2,-0.0005,0.0031
215.4,0.0027,0.0059
215.6,0.0009,0.0030
215.8,0.0012,0.0034
216.0,0.0018,0.0045
216.2,0.0017,0.0029
216.4,0.0001,0.0061
216.6,0.0044,0.0028
216.8,0.0015,0.0026
217.0,0.0026,0.0023
217.2,0.0001,0.0039
217.4,0.0031,0.0026
217.6,0.0004,0.0014
217.9,0.0035,0.0058
218.1,0.0003,0.0043
218.3,0.0013,0.0026
218.5,0.0014,0.0037
218.7,0.0028,0.0060
218.9,0.0026,0.0042
219.1,0.0009,0.0027
219.3,-0.0012,0.0042
219.5,0.0007,0.0037
219.7,-0.0012,0.0026
219.9,0.0015,0.0058
220.1,0.0019,0.0037
220.3,0.0008,0.0069
220.5,0.0013,0.0045
220.7,0.0002,0.0034
220.9,0.0026,0.0053
221.1,0.0019,0.0058
221.3,0.0008,0.0043
221.5,0.0007,0.0058
221.7,-0.0002,0.0036
221.9,0.0026,0.0062
222.1,0.0018,0.0058
222.3,0.0012,0.0046
222.5,0.0019,0.0052
222.7,0.0026,0.0065
223.0,0.0028,0.0029
223.2,0.0006,0.0059
223.4,-0.0015,0.0019
223.6,-0.0003,0.0053
223.8,0.0011,0.0043
224.0,0.0030,0.0030
224.2,0.0018,0.0045
224.4,0.0031,0.0042
224.6,0.0005,0.0067
224.8,0.0023,0.0043
225.0,0.0024,0.0042
225.2,0.0028,0.0039
225.4,0.0009,0.0046
225.6,0.0022,0.0039
225.8,0.0000,0.0032
226.0,0.0032,0.0053
226.2,0.0011,0.0030
226.4,0.0014,0.0043
226.6,0.0014,0.0055
226.8,0.0003,0.0055
227.0,0.0006,0.0000
227.2,-0.0012,0.0072
227.4,0.0015,0.0061
227.7,0.0019,0.0031
227.9,0.0010,0.0045
228.1,0.0004,0.0056
228.3,0.0036,0.0021
228.5,0.0041,0.0038
228.7,-0.0020,0.0030
228.9,0.0010,0.0036
229.1,0.0035,0.0024
229.3,0.0027,0.0038
229.5,0.0028,0.0027
229.7,0.0028,0.0052
229.9,0.0008,0.0016
230.1,0.0015,0.0030
230.3,0.0010,0.0058
230.5,0.0009,0.0037
230.7,0.0020,0.0057
230.9,0.0003,0.0065
231.1,0.0004,0.0034
231.3,0.0008,0.0049
231.5,0.0003,0.0050
231.7,0.0045,0.0061
232.0,0.0017,0.0036
232.2,0.0023,0.0049
232.4,0.0000,0.0043
232.6,0.0036,0.0059
232.8,0.0001,0.0012
233.0,0.0009,0.0048
233.2,-0.0007,0.0039
233.4,0.0005,0.0046
233.6,0.0015,0.0046
233.8,0.0038,0.0046
234.0,0.0014,0.0021
234.2,0.0028,0.0043
234.4,0.0023,0.0052
234.6,0.0041,0.0022
234.8,0.0032,0.0061
235.0,0.0027,0.0062
235.2,-0.0005,0.0033
235.4,0.0022,0.0034
235.6,-0.0003,0.0049
235.8,0.0035,0.0060
236.1,0.0040,0.0045
236.3,0.0032,0.0031
236.5,0.0001,0.0037
236.7,0.0034,0.0040
236.9,0.0010,0.0027
237.1,0.0039,0.0045
237.3,0.0028,0.0029
237.5,0.0033,0.0047
237.7,0.0000,0.0031
237.9,0.0017,0.0046
238.1,0.0022,0.0058
238.3,0.0046,0.0075
238.5,0.0001,0.0033
238.7,0.0001,0.0027
238.9,0.0010,0.0060
239.1,0.0015,0.0048
239.3,-0.0009,0.0058
239.5,0.0023,0.0057
239.8,0.0011,0.0055
240.0,-0.0006,0.0058
240.2,0.0032,0.0043
240.4,0.0024,0.0048
240.6,0.0010,0.0039
240.8,0.0018,0.0061
241.0,0.0002,0.0059
241.2,0.0019,0.0041
241.4,0.0003,0.0023
241.6,0.0012,0.0039
241.8,0.0030,0.0057
242.0,0.0025,0.0055
242.2,0.0001,0.0033
242.4,0.0016,0.0069
242.6,0.0012,0.0029
242.8,0.0018,0.0060
243.0,0.0012,0.0040
243.2,0.0004,0.0042
243.5,0.0024,0.0037
243.7,0.0047,0.0036
243.9,0.0013,0.0023
244.1,0.0028,0.0061
244.3,0.0007,0.0036
244.5,0.0038,0.0047
244.7,0.0018,0.0051
244.9,0.0044,0.0059
245.1,0.0004,0.0044
245.3,0.0028,0.0035
245.5,0.0035,0.0022
245.7,0.0013,0.0039
245.9,0.0034,0.0039
246.1,0.0012,0.0033
246.3,0.0009,0.0049
246.5,0.0005,0.0059
246.7,0.0010,0.0019
247.0,0.0022,0.0072
247.2,0.0014,0.0064
247.4,0.0025,0.0042
247.6,0.0034,0.0043
247.8,0.0037,0.0070
248.0,0.0009,0.0049
248.2,0.0035,0.0071
248.4,0.0024,0.0031
248.6,0.0013,0.0062
248.8,0.0010,0.0046
249.0,0.0032,0.0039
249.2,0.0019,0.0028
249.4,0.0014,0.0056
249.6,0.0005,0.0041
249.8,0.0041,0.0052
250.1,0.0032,0.0024
250.3,0.0017,0.0059
250.5,-0.0002,0.0018
250.7,0.0047,0.0038
250.9,0.0016,0.0026
251.1,0.0014,0.0057
251.3,0.0012,0.0042
251.5,0.0009,0.0026
251.7,0.0026,0.0034
251.9,0.0018,0.0069
252.1,0.0005,0.0037
252.3,0.0034,0.0061
252.5,0.0026,0.0049
252.7,0.0020,0.0057
252.9,0.0004,0.0033
253.1,0.0007,0.0060
253.4,0.0016,0.0039
253.6,0.0015,0.0060
253.8,0.0022,0.0063
254.0,0.0013,0.0039
254.2,-0.0005,0.0037
254.4,0.0018,0.0052
254.6,0.0011,0.0042
254.8,0.0016,0.0024
255.0,0.0010,0.0040
255.2,-0.0018,0.0045
255.4,0.0038,0.0046
255.6,0.0026,0.0032
255.8,0.0012,0.0029
256.0,0.0026,0.0035
256.3,0.0014,0.0043
256.5,0.0008,0.0049
256.7,0.0025,0.0045
256.9,0.0041,0.0039
257.1,0.0011,0.0034
257.3,0.0023,0.0064
257.5,-0.0002,0.0045
257.7,0.0015,0.0056
257.9,0.0039,0.0016
258.1,0.0028,0.0040
258.3,-0.0004,0.0023
258.5,-0.0001,0.0068
258.7,0.0018,0.0022
258.9,0.0004,0.0070
259.1,0.0008,0.0044
259.4,0.0014,0.0038
259.6,0.0011,0.0054
259.8,0.0017,0.0073
260.0,0.0010,0.0066
260.2,0.0024,0.0017
260.4,0.0006,0.0014
260.6,0.0034,0.0033
260.8,0.0006,0.0015
261.0,0.0004,0.0065
261.2,0.0017,0.0020
261.4,0.0006,0.0037
261.6,0.0015,0.0042
261.8,0.0030,0.0023
262.1,0.0028,0.0020
262.3,0.0036,0.0052
262.5,0.0018,0.0018
262.7,0.0029,0.0029
262.9,0.0001,0.0042
263.1,0.0022,0.0075
263.3,0.0001,0.0044
263.5,0.0041,0.0052
263.7,-0.0015,0.0032
263.9,0.0038,0.0082
264.1,0.0020,0.0032
264.3,0.0021,0.0073
264.5,-0.0014,0.0066
264.7,0.0032,0.0039
265.0,0.0013,0.0051
265.2,0.0036,0.0055
265.4,-0.0009,0.0067
265.6,0.0016,0.0061
265.8,0.0013,0.0041
266.0,0.0016,0.0045
266.2,0.0018,0.0048
266.4,0.0000,0.0057
266.6,-0.0016,0.0048
266.8,-0.0012,0.0040
267.0,0.0005,0.0048
267.2,0.0028,0.0048
267.4,0.0011,0.0031
267.7,0.0020,0.0025
267.9,0.0006,0.0040
268.1,0.0019,0.0030
268.3,0.0020,0.0039
268.5,0.0031,0.0060
268.7,0.0004,0.0049
268.9,0.0031,0.0069
269.1,0.0011,0.0046
269.3,0.0018,0.0080
269.5,0.0029,0.0038
269.7,0.0010,0.0064
269.9,-0.0020,0.0037
270.2,0.0032,0.0032
270.4,-0.0015,0.0033
270.6,0.0001,0.0063
270.8,0.0002,0.0048
271.0,0.0019,0.0064
271.2,0.0020,0.0039
271.4,0.0011,0.0030
271.6,0.0004,0.0032
271.8,-0.0007,0.0045
272.0,0.0010,0.0042
272.2,0.0016,0.0031
272.4,0.0008,0.0039
272.6,0.0012,0.0038
272.9,0.0003,0.0042
273.1,0.0018,0.0056
273.3,0.0034,0.0046
273.5,0.0030,0.0046
273.7,0.0040,0.0055
273.9,0.0016,0.0053
274.1,0.0000,0.0049
274.3,0.0021,0.0056
274.5,0.0013,0.0030
274.7,0.0000,0.0043
274.9,0.0012,0.0052
275.1,0.0032,0.0024
275.4,0.0017,0.0051
275.6,0.0016,0.0056
275.8,0.0008,0.0029
276.0,0.0016,0.0034
276.2,0.0002,0.0056
276.4,0.0025,0.0038
276.6,-0.0014,0.0023
276.8,0.0015,0.0047
277.0,0.0023,0.0047
277.2,0.0012,0.0035
277.4,0.0036,0.0067
277.6,-0.0006,0.0037
277.9,0.0031,0.0032
278.1,0.0022,0.0029
278.3,0.0015,0.0049
278.5,0.0023,0.0052
278.7,0.0026,0.0043
278.9,0.0019,0.0053
279.1,0.0006,0.0038
279.3,0.0038,0.0058
279.5,0.0000,0.0023
279.7,0.0027,0.0049
279.9,0.0029,0.0049
280.2,0.0038,0.0048
280.4,-0.0006,0.0039
280.6,0.0023,0.0039
280.8,0.0016,0.0069
281.0,0.0032,0.0051
281.2,0.0013,0.0046
281.4,0.0002,0.0041
281.6,0.0022,0.0039
281.8,0.0032,0.0067
282.0,0.0004,0.0036
282.2,0.0009,0.0060
282.5,0.0041,0.0019
282.7,0.0025,0.0029
282.9,0.0000,0.0046
283.1,0.0034,0.0047
283.3,0.0023,0.0019
283.5,0.0002,0.0054
283.7,0.0003,0.0037
283.9,0.0015,0.0040
284.1,0.0008,0.0041
284.3,0.0037,0.0036
284.5,0.0013,0.0054
284.8,0.0035,0.0043
285.0,0.0015,0.0034
285.2,0.0025,0.0034
285.4,0.0010,0.0026
285.6,0.0014,0.0033
285.8,0.0003,0.0037
286.0,0.0014,0.0046
286.2,0.0005,0.0056
286.4,0.0005,0.0045
286.6,0.0010,0.0052
286.8,0.0015,0.0055
287.1,0.0009,0.0059
287.3,0.0002,0.0045
287.5,-0.0001,0.0034
287.7,0.0008,0.0028
287.9,0.0012,0.0052
288.1,0.0009,0.0075
288.3,-0.0001,0.0041
288.5,0.0038,0.0040
288.7,0.0012,0.0047
288.9,-0.0022,0.0048
289.1,0.0007,0.0022
289.4,0.0022,0.0052
289.6,-0.0017,0.0050
289.8,0.0015,0.0061
290.0,0.0006,0.0044
290.2,0.0026,0.0055
290.4,-0.0009,0.0050
290.6,0.0026,0.0056
290.8,0.0013,0.0064
291.0,0.0004,0.0052
291.2,0.0000,0.0032
291.5,0.0021,0.0077
291.7,0.0014,0.0053
291.9,0.0033,0.0038
292.1,0.0021,0.0061
292.3,0.0016,0.0071
292.5,0.0013,0.0033
292.7,0.0031,0.0031
292.9,0.0010,0.0024
293.1,0.0013,0.0059
293.3,-0.0009,0.0045
293.6,0.0026,0.0044
293.8,-0.0014,0.0028
294.0,0.0032,0.0070
294.2,0.0015,0.0040
294.4,0.0007,0.0022
294.6,0.0004,0.0030
294.8,0.0008,0.0083
295.0,0.0007,0.0036
295.2,0.0019,0.0036
295.4,0.0009,0.0045
295.6,0.0016,0.0029
295.9,0.0011,0.0064
296.1,0.0043,0.0045
296.3,0.0037,0.0056
296.5,0.0023,0.0072
296.7,0.0006,0.0040
296.9,0.0019,0.0039
297.1,0.0023,0.0065
297.3,0.0023,0.0057
297.5,0.0020,0.0030
297.8,0.0035,0.0024
298.0,0.0007,0.0055
298.2,0.0025,0.0037
298.4,0.0025,0.0061
298.6,0.0025,0.0029
298.8,0.0026,0.0042
299.0,0.0019,0.0045
299.2,0.0013,0.0029
299.4,0.0010,0.0062
299.6,0.0028,0.0051
299.9,0.0018,0.0039
300.1,0.0022,0.0046
300.3,0.0020,0.0050
300.5,-0.0030,0.0090
300.7,0.0020,0.0027
300.9,-0.0003,0.0051
301.1,0.0013,0.0031
301.3,0.0023,0.0020
301.5,0.0029,0.0067
301.7,0.0007,0.0036
302.0,0.0039,0.0076
302.2,-0.0009,0.0024
302.4,0.0019,0.0009
302.6,0.0002,0.0049
302.8,0.0015,0.0057
303.0,-0.0005,0.0036
303.2,0.0002,0.0059
303.4,0.0000,0.0034
303.6,0.0021,0.0056
303.9,0.0004,0.0031
304.1,0.0019,0.0062
304.3,0.0012,0.0088
304.5,0.0029,0.0037
304.7,0.0020,0.0014
304.9,0.0025,0.0052
305.1,0.0008,0.0027
305.3,0.0009,0.0061
305.5,0.0022,0.0052
305.7,0.0012,0.0054
306.0,0.0021,0.0029
306.2,-0.0012,0.0060
306.4,0.0025,0.0060
306.6,0.0024,0.0060
306.8,0.0007,0.0040
307.0,0.0006,0.0048
307.2,-0.0006,0.0036
307.4,0.0043,0.0061
307.6,0.0001,0.0022
307.9,0.0031,0.0033
308.1,0.0004,0.0051
308.3,0.0035,0.0033
308.5,-0.0002,0.0033
308.7,0.0025,0.0070
308.9,-0.0013,0.0037
309.1,0.0002,0.0052
309.3,-0.0002,0.0042
309.5,0.0012,0.0079
309.8,-0.0008,0.0045
310.0,0.0028,0.0023
310.2,0.0012,0.0044
310.4,0.0039,0.0058
310.6,-0.0001,0.0043
310.8,0.0014,0.0054
311.0,0.0007,0.0021
311.2,0.0021,0.0034
311.4,0.0009,0.0049
311.7,0.0016,0.0044
311.9,0.0020,0.0044
312.1,0.0018,0.0029
312.3,-0.0009,0.0034
312.5,0.0009,0.0034
312.7,0.0007,0.0031
312.9,0.0007,0.0052
313.1,0.0012,0.0045
313.3,0.0018,0.0062
313.6,0.0003,0.0046
313.8,0.0009,0.0063
314.0,0.0019,0.0059
314.2,0.0031,0.0031
314.4,0.0026,0.0037
314.6,0.0011,0.0053
314.8,0.0003,0.0049
315.0,0.0025,0.0028
315.2,0.0016,0.0033
315.5,0.0013,0.0060
315.7,-0.0010,0.0052
315.9,0.0016,0.0034
316.1,0.0030,0.0018
316.3,0.0004,0.0040
316.5,-0.0018,0.0040
316.7,0.0032,0.0067
316.9,0.0012,0.0029
317.2,0.0018,0.0039
317.4,0.0026,0.0045
317.6,-0.0003,0.0041
317.8,0.0000,0.0043
318.0,0.0070,0.0054
318.2,0.0033,0.0022
318.4,-0.0025,0.0059
318.6,0.0025,0.0033
318.8,0.0024,0.0057
319.1,0.0009,0.0030
319.3,-0.0003,0.0059
319.5,0.0023,0.0037
319.7,0.0042,0.0024
319.9,0.0002,0.0048
320.1,0.0008,0.0043
320.3,0.0025,0.0033
320.5,0.0020,0.0051
320.8,0.0016,0.0043
321.0,0.0019,0.0038
321.2,0.0005,0.0037
321.4,0.0028,0.0038
321.6,0.0009,0.0034
321.8,0.0017,0.0069
322.0,0.0001,0.0043
322.2,-0.0003,0.0038
322.4,0.0000,0.0026
322.7,0.0051,0.0068
322.9,-0.0007,0.0030
323.1,0.0010,0.0054
323.3,0.0017,0.0054
323.5,0.0033,0.0037
323.7,0.0009,0.0039
323.9,0.0030,0.0039
324.1,0.0003,0.0033
324.4,0.0010,0.0053
324.6,0.0036,0.0034
324.8,0.0004,0.0052
325.0,0.0039,0.0045
325.2,0.0017,0.0061
325.4,0.0021,0.0045
325.6,0.0000,0.0052
325.8,0.0008,0.0044
326.1,0.0013,0.0040
326.3,0.0013,0.0026
326.5,0.0009,0.0042
326.7,0.0015,0.0046
326.9,0.0031,0.0056
327.1,0.0021,0.0011
327.3,0.0025,0.0017
327.5,0.0009,0.0022
327.8,0.0013,0.0024
328.0,0.0015,0.0028
328.2,0.0030,0.0039
328.4,0.0019,0.0042
328.6,0.0010,0.0035
328.8,-0.0012,0.0052
329.0,0.0018,0.0061
329.2,-0.0008,0.0037
329.5,0.0031,0.0053
329.7,0.0023,0.0030
329.9,0.0010,0.0045
330.1,-0.0012,0.0060
330.3,0.0032,0.0036
330.5,0.0013,0.0031
330.7,0.0022,0.0063
330.9,-0.0017,0.0054
331.2,0.0038,0.0072
331.4,0.0002,0.0021
331.6,0.0020,0.0029
331.8,0.0006,0.0032
332.0,0.0017,0.0067
332.2,0.0004,0.0055
332.4,0.0036,0.0041
332.6,-0.0014,0.0022
332.9,0.0020,0.0036
333.1,0.0004,0.0046
333.3,-0.0021,0.0015
333.5,0.0004,0.0054
333.7,0.0015,0.0056
333.9,-0.0004,0.0043
334.1,0.0031,0.0039
334.3,-0.0017,0.0052
334.6,0.0031,0.0090
334.8,0.0010,0.0031
335.0,0.0001,0.0054
335.2,0.0004,0.0053
335.4,0.0031,0.0078
335.6,0.0004,0.0055
335.8,0.0012,0.0028
336.0,0.0013,0.0037
336.3,0.0001,0.0044
336.5,0.0000,0.0057
336.7,0.0000,0.0029
336.9,-0.0008,0.0044
337.1,0.0026,0.0059
337.3,-0.0011,0.0028
337.5,0.0035,0.0061
337.8,0.0026,0.0040
338.0,0.0026,0.0070
338.2,0.0010,0.0048
338.4,0.0032,0.0049
338.6,0.0016,0.0055
338.8,0.0016,0.0045
339.0,0.0013,0.0034
339.2,0.0028,0.0069
339.5,0.0021,0.0046
339.7,0.0022,0.0052
339.9,0.0022,0.0029
340.1,0.0013,0.0055
340.3,0.0007,0.0042
340.5,0.0007,0.0063
340.7,0.0000,0.0058
340.9,-0.0002,0.0042
341.2,0.0024,0.0056
341.4,0.0013,0.0065
341.6,-0.0002,0.0049
341.8,-0.0004,0.0047
342.0,-0.0006,0.0080
342.2,0.0007,0.0050
342.4,0.0007,0.0041
342.7,0.0027,0.0029
342.9,0.0014,0.0049
343.1,0.0023,0.0042
343.3,0.0012,0.0049
343.5,0.0040,0.0059
343.7,0.0003,0.0062
343.9,0.0018,0.0077
344.2,0.0020,0.0069
344.4,0.0018,0.0066
344.6,-0.0020,0.0060
344.8,0.0006,0.0067
345.0,0.0013,0.0061
345.2,0.0016,0.0045
345.4,0.0010,0.0065
345.6,0.0012,0.0073
345.9,0.0018,0.0046
346.1,0.0015,0.0042
346.3,0.0009,0.0049
346.5,0.0030,0.0064
346.7,0.0055,0.0042
346.9,0.0013,0.0059
347.1,0.0007,0.0019
347.4,0.0006,0.0061
347.6,0.0004,0.0057
347.8,0.0030,0.0065
348.0,-0.0018,0.0045
348.2,0.0041,0.0062
348.4,-0.0005,0.0055
348.6,-0.0003,0.0058
348.9,-0.0012,0.0049
349.1,0.0029,0.0040
349.3,-0.0019,0.0051
349.5,0.0040,0.0059
349.7,0.0023,0.0051
349.9,-0.0013,0.0062
350.1,0.0027,0.0036
350.4,0.0038,0.0048
350.6,0.0000,0.0057
350.8,0.0013,0.0074
351.0,-0.0007,0.0055
351.2,0.0028,0.0058
351.4,0.0009,0.0068
351.6,0.0014,0.0067
351.9,0.0018,0.0066
352.1,0.0023,0.0066
352.3,-0.0022,0.0083
352.5,0.0012,0.0071
352.7,0.0004,0.0080
352.9,0.0006,0.0082
353.1,0.0020,0.0065
353.3,-0.0001,0.0073
353.6,0.0018,0.0095
353.8,0.0001,0.0070
354.0,-0.0006,0.0064
354.2,0.0000,0.0064
354.4,0.0008,0.0052
354.6,0.0026,0.0074
354.8,0.0013,0.0081
355.1,0.0012,0.0079
355.3,0.0006,0.0065
355.5,0.0004,0.0081
355.7,0.0019,0.0084
355.9,0.0007,0.0078
356.1,0.0013,0.0069
356.4,0.0007,0.0085
356.6,0.0002,0.0048
356.8,0.0037,0.0065
357.0,-0.0010,0.0048
357.2,0.0028,0.0086
357.4,0.0003,0.0066
357.6,0.0013,0.0087
357.9,0.0032,0.0088
358.1,0.0013,0.0065
358.3,0.0015,0.0088
358.5,0.0008,0.0047
358.7,0.0021,0.0079
358.9,0.0021,0.0074
359.1,0.0028,0.0058
359.4,0.0044,0.0058
359.6,0.0011,0.0061
359.8,0.0018,0.0085
360.0,0.0006,0.0066
360.2,0.0004,0.0061
360.4,0.0010,0.0058
360.6,0.0010,0.0090
360.9,0.0023,0.0059
361.1,0.0007,0.0101
361.3,0.0002,0.0040
361.5,0.0047,0.0079
361.7,0.0009,0.0076
361.9,0.0016,0.0086
362.1,0.0007,0.0056
362.4,0.0006,0.0071
362.6,0.0015,0.0061
362.8,0.0023,0.0067
363.0,0.0009,0.0069
363.2,0.0013,0.0110
363.4,0.0025,0.0071
363.6,0.0015,0.0080
363.9,0.0028,0.0069
364.1,0.0016,0.0083
364.3,0.0006,0.0081
364.5,0.0022,0.0092
364.7,0.0005,0.0077
364.9,0.0034,0.0080
365.2,0.0015,0.0084
365.4,0.0031,0.0101
365.6,0.0029,0.0070
365.8,0.0041,0.0091
366.0,0.0024,0.0081
366.2,0.0052,0.0101
366.4,0.0025,0.0084
366.7,0.0031,0.0115
366.9,0.0031,0.0097
367.1,0.0032,0.0074
367.3,0.0019,0.0061
367.5,0.0037,0.0096
367.7,0.0045,0.0077
368.0,0.0032,0.0094
368.2,0.0022,0.0087
368.4,0.0035,0.0085
368.6,0.0014,0.0109
368.8,0.0031,0.0098
369.0,0.0027,0.0088
369.2,0.0025,0.0113
369.5,-0.0004,0.0085
369.7,0.0042,0.0093
369.9,0.0011,0.0086
370.1,0.0023,0.0085
370.3,0.0030,0.0113
370.5,0.0023,0.0107
370.8,0.0035,0.0106
371.0,0.0075,0.0098
371.2,0.0041,0.0106
371.4,0.0029,0.0107
371.6,0.0048,0.0084
371.8,0.0047,0.0074
372.0,0.0049,0.0101
372.3,0.0048,0.0104
372.5,0.0020,0.0104
372.7,0.0034,0.0104
372.9,0.0020,0.0100
373.1,0.0062,0.0117
373.3,0.0021,0.0074
373.6,0.0061,0.0138
373.8,0.0038,0.0100
374.0,0.0031,0.0100
374.2,0.0047,0.0088
374.4,0.0041,0.0106
374.6,0.0020,0.0100
374.8,0.0028,0.0100
375.1,0.0025,0.0093
375.3,0.0061,0.0109
375.5,0.0024,0.0111
375.7,0.0044,0.0123
375.9,0.0035,0.0101
376.1,0.0037,0.0104
376.4,0.0057,0.0125
376.6,0.0039,0.0131
376.8,0.0035,0.0119
377.0,0.0046,0.0095
377.2,0.0041,0.0116
377.4,0.0066,0.0132
377.7,0.0031,0.0094
377.9,0.0054,0.0151
378.1,0.0013,0.0148
378.3,0.0076,0.0160
378.5,0.0055,0.0144
378.7,0.0044,0.0169
378.9,0.0068,0.0162
379.2,0.0042,0.0185
379.4,0.0087,0.0156
379.6,0.0076,0.0150
379.8,0.0035,0.0148
380.0,0.0050,0.0157
380.2,0.0055,0.0136
380.5,0.0059,0.0163
380.7,0.0041,0.0140
380.9,0.0045,0.0137
381.1,0.0051,0.0145
381.3,0.0044,0.0202
381.5,0.0072,0.0139
381.8,0.0060,0.0168
382.0,0.0067,0.0171
382.2,0.0068,0.0184
382.4,0.0067,0.0167
382.6,0.0073,0.0185
382.8,0.0051,0.0155
383.1,0.0072,0.0130
383.3,0.0031,0.0156
383.5,0.0069,0.0132
383.7,0.0038,0.0119
383.9,0.0066,0.0127
384.1,0.0032,0.0120
384.4,0.0049,0.0119
384.6,0.0027,0.0110
384.8,0.0064,0.0149
385.0,0.0067,0.0147
385.2,0.0053,0.0165
385.4,0.0070,0.0178
385.7,0.0095,0.0165
385.9,0.0068,0.0218
386.1,0.0084,0.0171
386.3,0.0069,0.0189
386.5,0.0084,0.0208
386.7,0.0048,0.0184
387.0,0.0061,0.0208
387.2,0.0105,0.0192
387.4,0.0104,0.0240
387.6,0.0064,0.0186
387.8,0.0076,0.0190
388.0,0.0097,0.0222
388.3,0.0072,0.0203
388.5,0.0090,0.0186
388.7,0.0124,0.0214
388.9,0.0098,0.0229
389.1,0.0095,0.0223
389.3,0.0102,0.0216
389.6,0.0111,0.0209
389.8,0.0102,0.0216
390.0,0.0120,0.0259
390.2,0.0125,0.0258
390.4,0.0138,0.0268
390.6,0.0105,0.0278
390.9,0.0142,0.0285
391.1,0.0145,0.0254
391.3,0.0132,0.0265
391.5,0.0135,0.0273
391.7,0.0156,0.0296
391.9,0.0163,0.0303
392.2,0.0190,0.0312
392.4,0.0121,0.0295
392.6,0.0172,0.0324
392.8,0.0166,0.0327
393.0,0.0171,0.0304
393.2,0.0134,0.0282
393.5,0.0150,0.0280
393.7,0.0111,0.0253
393.9,0.0099,0.0237
394.1,0.0090,0.0209
394.3,0.0113,0.0196
394.5,0.0144,0.0185
394.8,0.0133,0.0208
395.0,0.0130,0.0199
395.2,0.0148,0.0216
395.4,0.0159,0.0262
395.6,0.0191,0.0299
395.8,0.0174,0.0293
396.1,0.0192,0.0350
396.3,0.0206,0.0352
396.5,0.0188,0.0309
396.7,0.0184,0.0359
396.9,0.0185,0.0314
397.1,0.0161,0.0300
397.4,0.0160,0.0267
397.6,0.0125,0.0240
397.8,0.0125,0.0253
398.0,0.0160,0.0263
398.2,0.0152,0.0287
398.4,0.0209,0.0307
398.7,0.0223,0.0297
398.9,0.0221,0.0330
399.1,0.0238,0.0369
399.3,0.0241,0.0408
399.5,0.0273,0.0445
399.8,0.0283,0.0469
400.0,0.0334,0.0438
400.2,0.0303,0.0440
400.4,0.0327,0.0495
400.6,0.0296,0.0484
400.8,0.0327,0.0505
401.1,0.0267,0.0503
401.3,0.0309,0.0512
401.5,0.0330,0.0482
401.7,0.0357,0.0525
401.9,0.0368,0.0536
402.1,0.0325,0.0522
402.4,0.0381,0.0530
402.6,0.0355,0.0523
402.8,0.0375,0.0556
403.0,0.0426,0.0536
403.2,0.0374,0.0569
403.5,0.0393,0.0544
403.7,0.0355,0.0558
403.9,0.0369,0.0567
404.1,0.0384,0.0505
404.3,0.0354,0.0529
404.5,0.0383,0.0575
404.8,0.0408,0.0617
405.0,0.0395,0.0564
405.2,0.0385,0.0563
405.4,0.0340,0.0599
405.6,0.0408,0.0590
405.8,0.0412,0.0560
406.1,0.0446,0.0597
406.3,0.0380,0.0570
406.5,0.0384,0.0594
406.7,0.0402,0.0579
406.9,0.0398,0.0570
407.2,0.0404,0.0593
407.4,0.0391,0.0592
407.6,0.0465,0.0634
407.8,0.0422,0.0568
408.0,0.0432,0.0630
408.2,0.0430,0.0635
408.5,0.0403,0.0672
408.7,0.0438,0.0670
408.9,0.0422,0.0647
409.1,0.0471,0.0647
409.3,0.0509,0.0704
409.6,0.0496,0.0676
409.8,0.0480,0.0708
410.0,0.0469,0.0661
410.2,0.0450,0.0683
410.4,0.0440,0.0667
410.6,0.0464,0.0669
410.9,0.0454,0.0666
411.1,0.0490,0.0642
411.3,0.0502,0.0663
411.5,0.0482,0.0710
411.7,0.0517,0.0672
412.0,0.0556,0.0715
412.2,0.0545,0.0756
412.4,0.0555,0.0753
412.6,0.0554,0.0764
412.8,0.0554,0.0731
413.0,0.0524,0.0765
413.3,0.0543,0.0816
413.5,0.0523,0.0748
413.7,0.0551,0.0766
413.9,0.0527,0.0774
414.1,0.0555,0.0772
414.4,0.0580,0.0792
414.6,0.0574,0.0768
414.8,0.0575,0.0743
415.0,0.0567,0.0778
415.2,0.0562,0.0805
415.4,0.0573,0.0794
415.7,0.0573,0.0822
415.9,0.0575,0.0816
416.1,0.0567,0.0772
416.3,0.0609,0.0862
416.5,0.0577,0.0804
416.8,0.0651,0.0838
417.0,0.0616,0.0837
417.2,0.0609,0.0838
417.4,0.0605,0.0841
417.6,0.0627,0.0861
417.8,0.0570,0.0791
418.1,0.0590,0.0845
418.3,0.0602,0.0804
418.5,0.0573,0.0828
418.7,0.0635,0.0863
418.9,0.0561,0.0847
419.2,0.0626,0.0854
419.4,0.0622,0.0825
419.6,0.0595,0.0832
419.8,0.0622,0.0885
420.0,0.0610,0.0838
420.3,0.0628,0.0853
420.5,0.0598,0.0866
420.7,0.0654,0.0879
420.9,0.0642,0.0866
421.1,0.0673,0.0923
421.3,0.0655,0.0857
421.6,0.0668,0.0943
421.8,0.0761,0.0953
422.0,0.0720,0.0933
422.2,0.0710,0.0905
422.4,0.0693,0.0931
422.7,0.0704,0.0957
422.9,0.0698,0.0924
423.1,0.0673,0.0918
423.3,0.0629,0.0903
423.5,0.0644,0.0891
423.8,0.0693,0.0939
424.0,0.0660,0.0917
424.2,0.0707,0.0896
424.4,0.0711,0.0946
424.6,0.0743,0.0972
424.9,0.0761,0.0935
425.1,0.0753,0.0961
425.3,0.0715,0.0953
425.5,0.0699,0.1000
425.7,0.0686,0.0956
425.9,0.0717,0.0991
426.2,0.0782,0.0989
426.4,0.0742,0.0952
426.6,0.0746,0.0958
426.8,0.0800,0.0994
427.0,0.0779,0.1029
427.3,0.0796,0.1062
427.5,0.0778,0.1023
427.7,0.0777,0.1051
427.9,0.0775,0.0966
428.1,0.0800,0.1019
428.4,0.0805,0.1035
428.6,0.0815,0.1039
428.8,0.0814,0.0973
429.0,0.0797,0.1031
429.2,0.0769,0.1022
429.5,0.0780,0.0979
429.7,0.0781,0.1023
429.9,0.0786,0.1086
430.1,0.0734,0.1004
430.3,0.0719,0.0998
430.6,0.0648,0.0955
430.8,0.0684,0.0955
431.0,0.0659,0.0897
431.2,0.0702,0.0873
431.4,0.0653,0.0888
431.6,0.0625,0.0857
431.9,0.0724,0.0837
432.1,0.0817,0.0984
432.3,0.0898,0.1034
432.5,0.0956,0.1147
432.7,0.0926,0.1192
433.0,0.0910,0.1202
433.2,0.0901,0.1191
433.4,0.0952,0.1220
433.6,0.0982,0.1265
433.8,0.1035,0.1274
434.1,0.1040,0.1353
434.3,0.1042,0.1234
434.5,0.0974,0.1268
434.7,0.0911,0.1252
434.9,0.0979,0.1233
435.2,0.1005,0.1263
435.4,0.1001,0.1284
435.6,0.1017,0.1314
435.8,0.1005,0.1332
436.0,0.1079,0.1355
436.3,0.1064,0.1386
436.5,0.1101,0.1424
436.7,0.1083,0.1415
436.9,0.1175,0.1494
437.1,0.1198,0.1488
437.4,0.1190,0.1498
437.6,0.1158,0.1504
437.8,0.1186,0.1543
438.0,0.1160,0.1554
438.2,0.1174,0.1533
438.5,0.1170,0.1505
438.7,0.1144,0.1551
438.9,0.1096,0.1505
439.1,0.1080,0.1396
439.3,0.1097,0.1421
439.6,0.1077,0.1447
439.8,0.1140,0.1420
440.0,0.1174,0.1471
440.2,0.1157,0.1488
440.4,0.1221,0.1533
440.7,0.1237,0.1569
440.9,0.1214,0.1528
441.1,0.1180,0.1549
441.3,0.1260,0.1550
441.5,0.1235,0.1557
441.8,0.1284,0.1621
442.0,0.1310,0.1683
442.2,0.1402,0.1682
442.4,0.1405,0.1637
442.6,0.1453,0.1799
442.9,0.1375,0.1756
443.1,0.1373,0.1757
443.3,0.1440,0.1806
443.5,0.1441,0.1805
443.7,0.1468,0.1775
444.0,0.1443,0.1816
444.2,0.1437,0.1763
444.4,0.1453,0.1783
444.6,0.1428,0.1861
444.8,0.1474,0.1820
445.1,0.1501,0.1837
445.3,0.1443,0.1804
445.5,0.1484,0.1852
445.7,0.1515,0.1890
445.9,0.1479,0.1874
446.2,0.1467,0.1818
446.4,0.1449,0.1850
446.6,0.1422,0.1761
446.8,0.1412,0.1764
447.0,0.1438,0.1819
447.3,0.1438,0.1818
447.5,0.1502,0.1880
447.7,0.1490,0.1926
447.9,0.1571,0.1968
448.1,0.1642,0.1960
448.4,0.1699,0.2035
448.6,0.1711,0.2014
448.8,0.1647,0.1999
449.0,0.1636,0.2070
449.3,0.1645,0.2014
449.5,0.1760,0.2023
449.7,0.1742,0.2065
449.9,0.1745,0.2021
450.1,0.1732,0.2078
450.4,0.1691,0.2070
450.6,0.1822,0.2132
450.8,0.1848,0.2164
451.0,0.1838,0.2231
451.2,0.1895,0.2206
451.5,0.1921,0.2295
451.7,0.1844,0.2314
451.9,0.1998,0.2377
452.1,0.1993,0.2277
452.3,0.2049,0.2298
452.6,0.2003,0.2282
452.8,0.1982,0.2374
453.0,0.1979,0.2282
453.2,0.1990,0.2306
453.4,0.1939,0.2237
453.7,0.1874,0.2169
453.9,0.1849,0.2228
454.1,0.1869,0.2218
454.3,0.1852,0.2196
454.6,0.1893,0.2225
454.8,0.2051,0.2279
455.0,0.2036,0.2369
455.2,0.2052,0.2339
455.4,0.1988,0.2377
455.7,0.2030,0.2416
455.9,0.2063,0.2359
456.1,0.2084,0.2317
456.3,0.2021,0.2350
456.5,0.2076,0.2454
456.8,0.2213,0.2432
457.0,0.2221,0.2521
457.2,0.2176,0.2482
457.4,0.2146,0.2541
457.6,0.2252,0.2560
457.9,0.2296,0.2550
458.1,0.2371,0.2562
458.3,0.2382,0.2517
458.5,0.2342,0.2569
458.8,0.2325,0.2538
459.0,0.2301,0.2456
459.2,0.2176,0.2503
459.4,0.2203,0.2489
459.6,0.2242,0.2574
459.9,0.2262,0.2588
460.1,0.2270,0.2545
460.3,0.2253,0.2511
460.5,0.2338,0.2628
460.7,0.2333,0.2627
461.0,0.2413,0.2603
461.2,0.2453,0.2614
461.4,0.2495,0.2655
461.6,0.2522,0.2687
461.8,0.2494,0.2753
462.1,0.2518,0.2782
462.3,0.2503,0.2730
462.5,0.2531,0.2818
462.7,0.2571,0.2864
463.0,0.2697,0.2829
463.2,0.2682,0.2878
463.4,0.2653,0.2886
463.6,0.2668,0.2885
463.8,0.2648,0.2949
464.1,0.2712,0.2926
464.3,0.2584,0.2855
464.5,0.2580,0.2859
464.7,0.2658,0.2870
464.9,0.2659,0.2940
465.2,0.2642,0.2873
465.4,0.2656,0.2886
465.6,0.2582,0.2860
465.8,0.2604,0.2912
466.1,0.2597,0.2842
466.3,0.2749,0.2953
466.5,0.2718,0.3037
466.7,0.2745,0.3037
466.9,0.2791,0.3053
467.2,0.2785,0.2982
467.4,0.2707,0.2902
467.6,0.2648,0.2924
467.8,0.2801,0.2849
468.1,0.2825,0.2991
468.3,0.2758,0.2988
468.5,0.2873,0.3074
468.7,0.2825,0.3025
468.9,0.2854,0.3085
469.2,0.2788,0.3065
469.4,0.2968,0.3154
469.6,0.3018,0.3135
469.8,0.3003,0.3154
470.0,0.2922,0.3094
470.3,0.2912,0.3191
470.5,0.2946,0.3179
470.7,0.3037,0.3159
470.9,0.2944,0.3055
471.2,0.2919,0.3035
471.4,0.2891,0.3063
471.6,0.2808,0.3131
471.8,0.2897,0.3135
472.0,0.2999,0.3097
472.3,0.3002,0.3249
472.5,0.3105,0.3327
472.7,0.3118,0.3371
472.9,0.3195,0.3413
473.2,0.3215,0.3413
473.4,0.3267,0.3399
473.6,0.3220,0.3391
473.8,0.3232,0.3338
474.0,0.3100,0.3331
474.3,0.3081,0.3348
474.5,0.3163,0.3364
474.7,0.3329,0.3320
474.9,0.3319,0.3320
475.2,0.3249,0.3419
475.4,0.3339,0.3449
475.6,0.3302,0.3515
475.8,0.3353,0.3491
476.0,0.3284,0.3518
476.3,0.3272,0.3492
476.5,0.3360,0.3478
476.7,0.3376,0.3533
476.9,0.3342,0.3511
477.2,0.3343,0.3495
477.4,0.3297,0.3525
477.6,0.3284,0.3484
477.8,0.3364,0.3487
478.0,0.3368,0.3552
478.3,0.3465,0.3616
478.5,0.3513,0.3697
478.7,0.3534,0.3847
478.9,0.3628,0.3791
479.2,0.3599,0.3791
479.4,0.3631,0.3818
479.6,0.3663,0.3773
479.8,0.3710,0.3726
480.0,0.3818,0.3762
480.3,0.3808,0.3794
480.5,0.3876,0.3847
480.7,0.3892,0.3923
480.9,0.3911,0.3934
481.2,0.3950,0.3892
481.4,0.3749,0.3896
481.6,0.3650,0.3950
481.8,0.3715,0.3931
482.0,0.3757,0.3985
482.3,0.3863,0.4005
482.5,0.3838,0.4039
482.7,0.3837,0.4122
482.9,0.4075,0.4105
483.2,0.4069,0.4176
483.4,0.3957,0.4101
483.6,0.3918,0.4108
483.8,0.3933,0.4068
484.1,0.3943,0.4208
484.3,0.4038,0.4150
484.5,0.3942,0.4193
484.7,0.3974,0.4156
484.9,0.4011,0.4111
485.2,0.3986,0.4136
485.4,0.3985,0.4199
485.6,0.4149,0.4160
485.8,0.4100,0.4218
486.1,0.3983,0.4194
486.3,0.3818,0.4080
486.5,0.3825,0.4060
486.7,0.3654,0.3917
486.9,0.3362,0.3563
487.2,0.3306,0.3426
487.4,0.3410,0.3567
487.6,0.3673,0.3662
487.8,0.3937,0.3841
488.1,0.4001,0.3895
488.3,0.3809,0.3872
488.5,0.3907,0.4057
488.7,0.4126,0.4144
489.0,0.4268,0.4280
489.2,0.4377,0.4376
489.4,0.4346,0.4295
489.6,0.4230,0.4231
489.8,0.4054,0.4160
490.1,0.3955,0.4109
490.3,0.4120,0.4284
490.5,0.4402,0.4382
490.7,0.4417,0.4572
491.0,0.4415,0.4660
491.2,0.4442,0.4588
491.4,0.4498,0.4591
491.6,0.4535,0.4671
491.9,0.4405,0.4659
492.1,0.4374,0.4582
492.3,0.4415,0.4607
492.5,0.4417,0.4575
492.7,0.4341,0.4468
493.0,0.4105,0.4383
493.2,0.4136,0.4345
493.4,0.4438,0.4392
493.6,0.4587,0.4621
493.9,0.4643,0.4654
494.1,0.4655,0.4693
494.3,0.4806,0.4695
494.5,0.4725,0.4646
494.8,0.4761,0.4570
495.0,0.4700,0.4592
495.2,0.4582,0.4688
495.4,0.4814,0.4780
495.7,0.4875,0.4841
495.9,0.4762,0.4850
496.1,0.4891,0.4997
496.3,0.4849,0.5064
496.5,0.4759,0.4854
496.8,0.4798,0.4723
497.0,0.4717,0.4744
497.2,0.4936,0.4984
497.4,0.4993,0.4951
497.7,0.4963,0.4974
497.9,0.4889,0.4918
498.1,0.4743,0.4902
498.3,0.4862,0.5008
498.6,0.4894,0.5119
498.8,0.4843,0.5070
499.0,0.4856,0.5124
499.2,0.4746,0.4884
499.5,0.4625,0.4824
499.7,0.4707,0.4751
499.9,0.4812,0.4845
500.1,0.4947,0.4990
500.3,0.4994,0.5143
500.6,0.4970,0.5208
500.8,0.4957,0.5143
501.0,0.5051,0.5079
501.2,0.4797,0.4971
501.5,0.4742,0.4889
501.7,0.4698,0.4847
501.9,0.4740,0.4890
502.1,0.4969,0.4863
502.4,0.4951,0.4854
502.6,0.4872,0.4792
502.8,0.4954,0.4783
503.0,0.4960,0.4903
503.3,0.4995,0.4821
503.5,0.5112,0.4960
503.7,0.4973,0.5044
503.9,0.4925,0.5033
504.2,0.4882,0.5115
504.4,0.5059,0.5139
504.6,0.5023,0.5065
504.8,0.4904,0.5011
505.0,0.4620,0.4801
505.3,0.4673,0.4782
505.5,0.4762,0.4861
505.7,0.5012,0.5103
505.9,0.5137,0.5155
506.2,0.5114,0.5134
506.4,0.5114,0.5289
506.6,0.5300,0.5248
506.8,0.5407,0.5466
507.1,0.5595,0.5504
507.3,0.5710,0.5557
507.5,0.5577,0.5438
507.7,0.5618,0.5365
508.0,0.5558,0.5287
508.2,0.5553,0.5333
508.4,0.5489,0.5433
508.6,0.5556,0.5434
508.9,0.5469,0.5404
509.1,0.5166,0.5382
509.3,0.5079,0.5198
509.5,0.5340,0.5222
509.8,0.5556,0.5457
510.0,0.5557,0.5600
510.2,0.5681,0.5603
510.4,0.5713,0.5593
510.6,0.5780,0.5745
510.9,0.5826,0.5626
511.1,0.5617,0.5569
511.3,0.5780,0.5680
511.5,0.5761,0.5658
511.8,0.5667,0.5626
512.0,0.5596,0.5758
512.2,0.5735,0.5693
512.4,0.5850,0.5777
512.7,0.5938,0.5938
512.9,0.5918,0.6001
513.1,0.6034,0.6089
513.3,0.5902,0.5972
513.6,0.5626,0.5953
513.8,0.5701,0.5822
514.0,0.5767,0.5787
514.2,0.5927,0.5768
514.5,0.6078,0.5835
514.7,0.5878,0.5938
514.9,0.5986,0.5929
515.1,0.6081,0.5838
515.4,0.6048,0.5903
515.6,0.5933,0.5913
515.8,0.6029,0.5996
516.0,0.6045,0.6031
516.3,0.6003,0.6081
516.5,0.5891,0.6035
516.7,0.5951,0.6107
516.9,0.6090,0.6214
517.2,0.6220,0.6255
517.4,0.5977,0.6318
517.6,0.5847,0.6102
517.8,0.5748,0.5699
518.1,0.5426,0.5409
518.3,0.5150,0.5094
518.5,0.5054,0.5100
518.7,0.5212,0.5202
519.0,0.5645,0.5698
519.2,0.6040,0.6090
519.4,0.5814,0.5944
519.6,0.5377,0.5489
519.9,0.5625,0.5723
520.1,0.6046,0.5965
520.3,0.5936,0.6011
520.5,0.5652,0.5937
520.8,0.5765,0.5941
521.0,0.6126,0.6187
521.2,0.6333,0.6331
521.4,0.6315,0.6226
521.7,0.6350,0.6093
521.9,0.6031,0.5931
522.1,0.6122,0.6044
522.3,0.6293,0.6378
522.6,0.6332,0.6263
522.8,0.6339,0.6370
523.0,0.6270,0.6335
523.2,0.6217,0.6431
523.5,0.6051,0.6486
523.7,0.5992,0.6171
523.9,0.6006,0.5986
524.1,0.6053,0.5924
524.4,0.6312,0.6092
524.6,0.6246,0.6154
524.8,0.6325,0.6292
525.0,0.6378,0.6411
525.3,0.6439,0.6565
525.5,0.6368,0.6455
525.7,0.6490,0.6458
525.9,0.6587,0.6418
526.2,0.6423,0.6418
526.4,0.6387,0.6326
526.6,0.6428,0.6376
526.8,0.6364,0.6477
527.1,0.6328,0.6469
527.3,0.6224,0.6385
527.5,0.5923,0.6039
527.7,0.5772,0.5644
528.0,0.5779,0.5573
528.2,0.5619,0.5576
528.4,0.5547,0.5660
528.6,0.5709,0.5843
528.9,0.5981,0.6063
529.1,0.6181,0.6145
529.3,0.6105,0.6320
529.5,0.6119,0.6228
529.8,0.6170,0.6232
530.0,0.6302,0.6395
530.2,0.6423,0.6562
530.4,0.6608,0.6704
530.7,0.6560,0.6605
530.9,0.6403,0.6434
531.1,0.6192,0.6285
531.3,0.6218,0.6284
531.6,0.6317,0.6431
531.8,0.6491,0.6555
532.0,0.6596,0.6516
532.2,0.6756,0.6655
532.5,0.6591,0.6789
532.7,0.6573,0.6602
532.9,0.6545,0.6586
533.1,0.6472,0.6585
533.4,0.6440,0.6448
533.6,0.6213,0.6403
533.8,0.5922,0.6197
534.0,0.5897,0.6028
534.3,0.5995,0.6093
534.5,0.6242,0.6239
534.7,0.6433,0.6536
534.9,0.6552,0.6609
535.2,0.6420,0.6408
535.4,0.6142,0.6441
535.6,0.6311,0.6444
535.8,0.6593,0.6607
536.1,0.6597,0.6479
536.3,0.6657,0.6605
536.5,0.6696,0.6700
536.8,0.6757,0.6968
537.0,0.6677,0.7007
537.2,0.6729,0.6996
537.4,0.6621,0.6904
537.7,0.6524,0.6885
537.9,0.6295,0.6703
538.1,0.6156,0.6528
538.3,0.5996,0.6573
538.6,0.6214,0.6474
538.8,0.6474,0.6684
539.0,0.6556,0.6919
539.2,0.6953,0.6837
539.5,0.6877,0.6775
539.7,0.6674,0.6783
539.9,0.6766,0.6881
540.1,0.6753,0.6869
540.4,0.6599,0.6781
540.6,0.6607,0.6793
540.8,0.6502,0.6622
541.0,0.6576,0.6717
541.3,0.6502,0.6627
541.5,0.6601,0.6627
541.7,0.6449,0.6543
541.9,0.6481,0.6467
542.2,0.6526,0.6543
542.4,0.6482,0.6618
542.6,0.6515,0.6756
542.9,0.6702,0.6824
543.1,0.7040,0.6872
543.3,0.7090,0.6924
543.5,0.7211,0.6864
543.8,0.7030,0.6822
544.0,0.6777,0.6943
544.2,0.6813,0.6934
544.4,0.6582,0.6892
544.7,0.6568,0.6675
544.9,0.6769,0.6782
545.1,0.6962,0.7010
545.3,0.6950,0.7252
545.6,0.7290,0.7350
545.8,0.7204,0.7161
546.0,0.6854,0.7044
546.2,0.6648,0.7113
546.5,0.6900,0.7308
546.7,0.7042,0.7240
546.9,0.7092,0.7281
547.1,0.7130,0.7235
547.4,0.7086,0.7227
547.6,0.7152,0.7279
547.8,0.6998,0.7070
548.1,0.6972,0.7393
548.3,0.7044,0.7299
548.5,0.7082,0.7391
548.7,0.7445,0.7282
549.0,0.7198,0.7231
549.2,0.6974,0.7137
549.4,0.6982,0.7200
549.6,0.7140,0.7249
549.9,0.7283,0.7473
550.1,0.7329,0.7510
550.3,0.7384,0.7610
550.5,0.7579,0.7495
550.8,0.7443,0.7476
551.0,0.7118,0.7615
551.2,0.7500,0.7519
551.5,0.7411,0.7591
551.7,0.7442,0.7601
551.9,0.7712,0.7528
552.1,0.7652,0.7606
552.4,0.7793,0.7703
552.6,0.7576,0.7547
552.8,0.7444,0.7613
553.0,0.7409,0.7675
553.3,0.7722,0.7723
553.5,0.7622,0.7769
553.7,0.7773,0.7786
553.9,0.7435,0.7703
554.2,0.7114,0.7608
554.4,0.6913,0.7535
554.6,0.6792,0.7635
554.8,0.7179,0.7882
555.1,0.7253,0.7862
555.3,0.7387,0.7875
555.5,0.7460,0.7922
555.8,0.7579,0.7879
556.0,0.7404,0.7959
556.2,0.7766,0.7947
556.4,0.8059,0.8116
556.7,0.7824,0.8019
556.9,0.7780,0.8049
557.1,0.7814,0.7880
557.3,0.7813,0.7947
557.6,0.7810,0.8052
557.8,0.7720,0.7787
558.0,0.7591,0.7845
558.3,0.7491,0.7793
558.5,0.7397,0.7777
558.7,0.7440,0.7734
558.9,0.7241,0.7837
559.2,0.7386,0.7848
559.4,0.7467,0.8063
559.6,0.7667,0.7928
559.8,0.7472,0.7992
560.1,0.7469,0.7776
560.3,0.7480,0.7642
560.5,0.7566,0.7568
560.7,0.7548,0.7554
561.0,0.7286,0.7775
561.2,0.7268,0.7745
561.4,0.7194,0.7724
561.7,0.7092,0.7588
561.9,0.7418,0.7749
562.1,0.7540,0.7871
562.3,0.7632,0.8247
562.6,0.7685,0.8126
562.8,0.7420,0.8035
563.0,0.7359,0.7895
563.2,0.7395,0.7758
563.5,0.7113,0.7846
563.7,0.7151,0.7918
563.9,0.7303,0.7905
564.2,0.7184,0.7938
564.4,0.7295,0.8040
564.6,0.7661,0.8215
564.8,0.7835,0.8113
565.1,0.7873,0.7952
565.3,0.7851,0.7843
565.5,0.7673,0.7887
565.7,0.7505,0.7876
566.0,0.7418,0.7866
566.2,0.7572,0.8071
566.4,0.7648,0.8052
566.7,0.7532,0.8110
566.9,0.7576,0.7928
567.1,0.7455,0.7870
567.3,0.7250,0.7509
567.6,0.7314,0.7574
567.8,0.7132,0.7732
568.0,0.7289,0.7866
568.2,0.7246,0.7899
568.5,0.7247,0.7968
568.7,0.7501,0.8004
568.9,0.7468,0.7967
569.2,0.7649,0.8102
569.4,0.7716,0.8068
569.6,0.7582,0.7983
569.8,0.7220,0.7739
570.1,0.7129,0.7685
570.3,0.7201,0.7611
570.5,0.7440,0.7652
570.8,0.7540,0.7738
571.0,0.7412,0.7733
571.2,0.7266,0.7712
571.4,0.7260,0.7779
571.7,0.7161,0.7720
571.9,0.7334,0.7639
572.1,0.7267,0.7570
572.3,0.7083,0.7677
572.6,0.6835,0.7589
572.8,0.6558,0.7494
573.0,0.6520,0.7515
573.3,0.6756,0.7672
573.5,0.6991,0.7783
573.7,0.7008,0.7840
573.9,0.7153,0.7936
574.2,0.7302,0.7937
574.4,0.7302,0.7873
574.6,0.7346,0.7785
574.8,0.7560,0.7914
575.1,0.7395,0.7869
575.3,0.7271,0.7865
575.5,0.7146,0.7967
575.8,0.7131,0.7857
576.0,0.6833,0.7769
576.2,0.6692,0.7838
576.4,0.6750,0.7911
576.7,0.6971,0.7795
576.9,0.6991,0.7729
577.1,0.7035,0.7649
577.4,0.6972,0.7769
577.6,0.7106,0.7709
577.8,0.7099,0.7843
578.0,0.7296,0.7957
578.3,0.7331,0.7909
578.5,0.7287,0.7946
578.7,0.7049,0.7909
579.0,0.7248,0.8013
579.2,0.7295,0.7825
579.4,0.7372,0.7809
579.6,0.7222,0.7685
579.9,0.7343,0.7744
580.1,0.7203,0.7683
580.3,0.7270,0.7591
580.5,0.7304,0.7781
580.8,0.7388,0.7957
581.0,0.7493,0.7977
581.2,0.7459,0.8129
581.5,0.7411,0.8202
581.7,0.7535,0.8273
581.9,0.7257,0.8104
582.1,0.7406,0.8143
582.4,0.7492,0.8169
582.6,0.7471,0.8294
582.8,0.7590,0.8175
583.1,0.7660,0.8374
583.3,0.7797,0.8374
583.5,0.7886,0.8477
583.7,0.7887,0.8539
584.0,0.7998,0.8570
584.2,0.7997,0.8564
584.4,0.7822,0.8501
584.7,0.7646,0.8603
584.9,0.7533,0.8472
585.1,0.7316,0.8582
585.3,0.7287,0.8669
585.6,0.7324,0.8763
585.8,0.7424,0.8721
586.0,0.7384,0.8587
586.3,0.7497,0.8733
586.5,0.7488,0.8719
586.7,0.7631,0.8597
586.9,0.7758,0.8517
587.2,0.7654,0.8524
587.4,0.7449,0.8302
587.6,0.7203,0.8507
587.9,0.7329,0.8517
588.1,0.7363,0.8679
588.3,0.7480,0.8585
588.5,0.7627,0.8700
588.8,0.7482,0.8715
589.0,0.7580,0.8587
589.2,0.7582,0.8451
589.5,0.7318,0.8317
589.7,0.7188,0.8104
589.9,0.7149,0.8030
590.1,0.7006,0.7746
590.4,0.6688,0.7218
590.6,0.6297,0.6982
590.8,0.6210,0.6918
591.1,0.6072,0.6947
591.3,0.6055,0.6794
591.5,0.5986,0.6980
591.7,0.6282,0.7391
592.0,0.6750,0.7560
592.2,0.6838,0.7761
592.4,0.7000,0.7825
592.7,0.6992,0.7931
592.9,0.6786,0.7772
593.1,0.6641,0.7859
593.3,0.6500,0.7725
593.6,0.6628,0.7747
593.8,0.6767,0.7736
594.0,0.7035,0.7895
594.3,0.6917,0.7915
594.5,0.6933,0.8040
594.7,0.6981,0.7903
594.9,0.6984,0.8137
595.2,0.6901,0.8475
595.4,0.7086,0.8239
595.6,0.7163,0.8093
595.9,0.7168,0.7808
596.1,0.6879,0.7830
596.3,0.6622,0.7667
596.5,0.6575,0.7832
596.8,0.6554,0.7812
597.0,0.6595,0.8004
597.2,0.6595,0.8052
597.5,0.6649,0.8098
597.7,0.6812,0.8297
597.9,0.6964,0.8574
598.1,0.6797,0.8402
598.4,0.6781,0.8334
598.6,0.6809,0.8390
598.8,0.7077,0.8520
599.1,0.7308,0.8313
599.3,0.7267,0.8292
599.5,0.7158,0.8454
599.7,0.7366,0.8426
600.0,0.7311,0.8292
600.2,0.7279,0.8427
600.4,0.7064,0.8573
600.7,0.6977,0.8551
600.9,0.7104,0.8563
601.1,0.7341,0.8628
601.4,0.7574,0.8719
601.6,0.7436,0.8665
601.8,0.7509,0.8640
602.0,0.7205,0.8447
602.3,0.7036,0.8511
602.5,0.7060,0.8528
602.7,0.7139,0.8537
603.0,0.7170,0.8285
603.2,0.7257,0.8190
603.4,0.7295,0.8272
603.6,0.7249,0.8259
603.9,0.7103,0.8244
604.1,0.6883,0.8157
604.3,0.6846,0.8028
604.6,0.6794,0.8035
604.8,0.6698,0.8095
605.0,0.6628,0.8118
605.3,0.6782,0.8082
605.5,0.6773,0.8105
605.7,0.6761,0.7946
605.9,0.6683,0.7943
606.2,0.6332,0.7875
606.4,0.6183,0.7849
606.6,0.6013,0.7754
606.9,0.5972,0.7599
607.1,0.5831,0.7517
607.3,0.5685,0.7501
607.5,0.5588,0.7690
607.8,0.5463,0.7769
608.0,0.5411,0.7749
608.2,0.5531,0.7886
608.5,0.5651,0.7909
608.7,0.5627,0.8050
608.9,0.5699,0.8066
609.2,0.5728,0.8116
609.4,0.5747,0.8156
609.6,0.5862,0.8237
609.8,0.6060,0.8287
610.1,0.6143,0.8304
610.3,0.6313,0.8344
610.5,0.6348,0.8424
610.8,0.6385,0.8480
611.0,0.6641,0.8549
611.2,0.6714,0.8649
611.4,0.7115,0.8790
611.7,0.7252,0.8781
611.9,0.7298,0.8832
612.1,0.7553,0.8806
612.4,0.7547,0.8872
612.6,0.7452,0.8851
612.8,0.7501,0.8945
613.1,0.7447,0.9004
613.3,0.7356,0.8996
613.5,0.7110,0.8948
613.7,0.6959,0.8902
614.0,0.6875,0.8724
614.2,0.6989,0.8747
614.4,0.6949,0.8816
614.7,0.6933,0.8719
614.9,0.7018,0.8709
615.1,0.6996,0.8541
615.4,0.6816,0.8546
615.6,0.6854,0.8348
615.8,0.6892,0.8531
616.0,0.6875,0.8592
616.3,0.6879,0.8543
616.5,0.7200,0.8538
616.7,0.7077,0.8746
617.0,0.7201,0.8817
617.2,0.7115,0.8664
617.4,0.7170,0.8735
617.7,0.7311,0.8497
617.9,0.7164,0.8400
618.1,0.6720,0.8230
618.3,0.6513,0.8290
618.6,0.6524,0.8233
618.8,0.6416,0.8320
619.0,0.6339,0.8311
619.3,0.6384,0.8454
619.5,0.6520,0.8586
619.7,0.6511,0.8685
620.0,0.6503,0.8609
620.2,0.6478,0.8586
620.4,0.6555,0.8700
620.6,0.6504,0.8698
620.9,0.6751,0.8552
621.1,0.6721,0.8613
621.3,0.6789,0.8685
621.6,0.6684,0.8781
621.8,0.6579,0.8743
622.0,0.6445,0.8684
622.3,0.6504,0.8821
622.5,0.6831,0.8824
622.7,0.6810,0.8951
622.9,0.6735,0.8773
623.2,0.6836,0.8829
623.4,0.6894,0.8910
623.6,0.6767,0.8637
623.9,0.6836,0.8837
624.1,0.6919,0.8788
624.3,0.6737,0.8743
624.6,0.6720,0.8526
624.8,0.6732,0.8606
625.0,0.6628,0.8587
625.2,0.6599,0.8566
625.5,0.6589,0.8553
625.7,0.6781,0.8505
625.9,0.6749,0.8472
626.2,0.6698,0.8411
626.4,0.6672,0.8510
626.6,0.6483,0.8470
626.9,0.6466,0.8387
627.1,0.6365,0.8245
627.3,0.6428,0.8356
627.6,0.6435,0.8348
627.8,0.6600,0.8334
628.0,0.6686,0.8571
628.2,0.6491,0.8646
628.5,0.6435,0.8616
628.7,0.6437,0.8404
628.9,0.6340,0.8443
629.2,0.6170,0.8332
629.4,0.5959,0.8198
629.6,0.6000,0.7922
629.9,0.5838,0.7879
630.1,0.5798,0.7894
630.3,0.5827,0.8057
630.5,0.6097,0.8186
630.8,0.6049,0.8150
631.0,0.5870,0.8078
631.2,0.5676,0.8107
631.5,0.5735,0.8089
631.7,0.5736,0.8033
631.9,0.5843,0.8019
632.2,0.5976,0.8135
632.4,0.6022,0.8168
632.6,0.5927,0.8196
632.9,0.5838,0.8325
633.1,0.5984,0.8311
633.3,0.6076,0.8307
633.5,0.5942,0.8140
633.8,0.6072,0.8102
634.0,0.6110,0.8318
634.2,0.6179,0.8260
634.5,0.6201,0.8238
634.7,0.6265,0.8406
634.9,0.6119,0.8409
635.2,0.6161,0.8274
635.4,0.5963,0.8406
635.6,0.6086,0.8525
635.9,0.6012,0.8606
636.1,0.6121,0.8501
636.3,0.6164,0.8533
636.5,0.5952,0.8684
636.8,0.6151,0.8591
637.0,0.6184,0.8677
637.2,0.6179,0.8728
637.5,0.6180,0.8636
637.7,0.6149,0.8457
637.9,0.6219,0.8509
638.2,0.6335,0.8626
638.4,0.6383,0.8755
638.6,0.6228,0.8660
638.9,0.6298,0.8588
639.1,0.6172,0.8761
639.3,0.6228,0.8804
639.6,0.6125,0.8862
639.8,0.6171,0.8944
640.0,0.6092,0.8857
640.2,0.5998,0.8850
640.5,0.5923,0.8775
640.7,0.5967,0.8973
640.9,0.6158,0.8666
641.2,0.6144,0.8816
641.4,0.6069,0.8767
641.6,0.6140,0.8736
641.9,0.6091,0.8777
642.1,0.6033,0.8862
642.3,0.6173,0.8787
642.6,0.6283,0.8794
642.8,0.6291,0.8748
643.0,0.6292,0.8843
643.2,0.6250,0.8716
643.5,0.6135,0.8692
643.7,0.6265,0.8665
643.9,0.6317,0.8773
644.2,0.6204,0.9026
644.4,0.6190,0.9102
644.6,0.6431,0.9056
644.9,0.6476,0.9018
645.1,0.6467,0.8844
645.3,0.6458,0.8791
645.6,0.6497,0.8991
645.8,0.6630,0.9152
646.0,0.6706,0.9305
646.3,0.6772,0.9220
646.5,0.6601,0.9016
646.7,0.6191,0.8984
647.0,0.6121,0.8794
647.2,0.5944,0.8755
647.4,0.5737,0.8592
647.6,0.5705,0.8711
647.9,0.5725,0.8410
648.1,0.5654,0.8361
648.3,0.5659,0.8270
648.6,0.5601,0.8118
648.8,0.5308,0.7763
649.0,0.5215,0.7832
649.3,0.5285,0.7849
649.5,0.5339,0.7864
649.7,0.5321,0.7738
650.0,0.5331,0.7665
650.2,0.5163,0.7664
650.4,0.5081,0.7901
650.7,0.5187,0.7919
650.9,0.5104,0.7709
651.1,0.5021,0.7593
651.3,0.4957,0.7519
651.6,0.4893,0.7498
651.8,0.5044,0.7836
652.0,0.5317,0.8073
652.3,0.5380,0.7996
652.5,0.5539,0.8103
652.7,0.5496,0.8063
653.0,0.5263,0.7795
653.2,0.5278,0.7712
653.4,0.5284,0.7455
653.7,0.5177,0.7591
653.9,0.4889,0.7742
654.1,0.5001,0.7806
654.4,0.5161,0.7818
654.6,0.5164,0.7889
654.8,0.5143,0.7954
655.1,0.5084,0.7962
655.3,0.4963,0.7965
655.5,0.4877,0.7741
655.8,0.4906,0.7812
656.0,0.4868,0.7863
656.2,0.4852,0.7684
656.4,0.4862,0.7495
656.7,0.4779,0.7604
656.9,0.4732,0.7554
657.1,0.4836,0.7432
657.4,0.4756,0.7286
657.6,0.4608,0.7084
657.8,0.4552,0.6696
658.1,0.4307,0.6341
658.3,0.4203,0.6554
658.5,0.4183,0.6892
658.8,0.4353,0.7075
659.0,0.4332,0.7118
659.2,0.4217,0.7064
659.5,0.4305,0.7230
659.7,0.4459,0.7530
659.9,0.4365,0.7401
660.2,0.4481,0.7356
660.4,0.4460,0.7433
660.6,0.4570,0.7548
660.9,0.4740,0.7692
661.1,0.4735,0.7674
661.3,0.4694,0.7684
661.6,0.4673,0.7810
661.8,0.4671,0.7915
662.0,0.4700,0.7808
662.2,0.4537,0.7832
662.5,0.4740,0.7974
662.7,0.4753,0.8058
662.9,0.4799,0.8031
663.2,0.4725,0.7938
663.4,0.4722,0.8087
663.6,0.4807,0.7956
663.9,0.4859,0.7949
664.1,0.4948,0.7953
664.3,0.4880,0.8097
664.6,0.4743,0.7839
664.8,0.4970,0.7973
665.0,0.4951,0.7884
665.3,0.4884,0.7969
665.5,0.4862,0.8062
665.7,0.4821,0.7941
666.0,0.4802,0.7782
666.2,0.4855,0.7907
666.4,0.4652,0.7863
666.7,0.4551,0.8155
666.9,0.4632,0.7965
667.1,0.4628,0.8125
667.4,0.4583,0.8149
667.6,0.4586,0.7948
667.8,0.4600,0.8001
668.1,0.4694,0.8056
668.3,0.4669,0.7940
668.5,0.4581,0.8000
668.8,0.4548,0.7993
669.0,0.4474,0.8149
669.2,0.4499,0.7939
669.4,0.4632,0.7973
669.7,0.4640,0.7916
669.9,0.4678,0.8007
670.1,0.4563,0.7992
670.4,0.4581,0.8031
670.6,0.4554,0.8064
670.8,0.4399,0.8011
671.1,0.4367,0.7948
671.3,0.4481,0.7907
671.5,0.4559,0.8030
671.8,0.4497,0.8098
672.0,0.4400,0.7941
672.2,0.4441,0.8065
672.5,0.4523,0.8057
672.7,0.4527,0.8068
672.9,0.4523,0.8026
673.2,0.4495,0.7854
673.4,0.4322,0.7947
673.6,0.4330,0.7955
673.9,0.4496,0.7861
674.1,0.4554,0.7945
674.3,0.4591,0.7923
674.6,0.4470,0.7903
674.8,0.4415,0.8026
675.0,0.4365,0.7986
675.3,0.4385,0.7902
675.5,0.4461,0.7984
675.7,0.4523,0.8010
676.0,0.4483,0.7995
676.2,0.4447,0.8057
676.4,0.4420,0.8006
676.7,0.4376,0.8126
676.9,0.4395,0.8056
677.1,0.4340,0.8126
677.4,0.4337,0.8141
677.6,0.4482,0.7917
677.8,0.4527,0.7979
678.1,0.4407,0.8034
678.3,0.4452,0.7951
678.5,0.4461,0.7891
678.8,0.4536,0.7884
679.0,0.4457,0.7911
679.2,0.4510,0.8094
679.5,0.4600,0.8012
679.7,0.4534,0.8226
679.9,0.4456,0.8111
680.2,0.4492,0.8062
680.4,0.4319,0.7950
680.6,0.4298,0.8009
680.9,0.4209,0.7920
681.1,0.4205,0.8100
681.3,0.4293,0.8034
681.5,0.4269,0.8021
681.8,0.4207,0.8030
682.0,0.4246,0.8105
682.2,0.4219,0.8100
682.5,0.4252,0.8178
682.7,0.4312,0.8109
682.9,0.4194,0.8130
683.2,0.4176,0.8173
683.4,0.4152,0.8047
683.6,0.4155,0.8056
683.9,0.4123,0.8031
684.1,0.4121,0.8077
684.3,0.4164,0.7989
684.6,0.4166,0.7987
684.8,0.4160,0.8005
685.0,0.4334,0.8028
685.3,0.4275,0.7967
685.5,0.4299,0.7957
685.7,0.4385,0.7945
686.0,0.4237,0.7872
686.2,0.4228,0.7917
686.4,0.4219,0.7816
686.7,0.4378,0.7965
686.9,0.4343,0.7758
687.1,0.4164,0.7940
687.4,0.4166,0.7980
687.6,0.4162,0.7927
687.8,0.4043,0.7870
688.1,0.3891,0.7607
688.3,0.3812,0.7343
688.5,0.3740,0.6901
688.8,0.3631,0.6437
689.0,0.3500,0.6105
689.2,0.3333,0.5845
689.5,0.3087,0.5772
689.7,0.3095,0.5894
689.9,0.3071,0.6090
690.2,0.3112,0.6072
690.4,0.3069,0.6065
690.6,0.3034,0.6019
690.9,0.2987,0.5844
691.1,0.2898,0.5817
691.3,0.2822,0.5770
691.6,0.2700,0.5693
691.8,0.2719,0.5769
692.0,0.2764,0.5948
692.3,0.2862,0.6057
692.5,0.2825,0.6032
692.7,0.2906,0.6253
693.0,0.2951,0.6282
693.2,0.2944,0.6387
693.4,0.3019,0.6395
693.7,0.3079,0.6558
693.9,0.3031,0.6367
694.1,0.2949,0.6332
694.4,0.2920,0.6266
694.6,0.2958,0.6391
694.8,0.3015,0.6294
695.1,0.2969,0.6281
695.3,0.2945,0.6218
695.5,0.2944,0.6275
695.8,0.2865,0.6198
696.0,0.2870,0.6157
696.2,0.2774,0.6117
696.5,0.2877,0.6175
696.7,0.2824,0.6145
696.9,0.2807,0.6158
697.2,0.2843,0.6167
697.4,0.2785,0.6320
697.7,0.2842,0.6415
697.9,0.2756,0.6343
698.1,0.2916,0.6486
698.4,0.2890,0.6506
698.6,0.2954,0.6569
698.8,0.2948,0.6645
699.1,0.2974,0.6701
699.3,0.2935,0.6746
699.5,0.3010,0.6703
699.8,0.3106,0.6641
700.0,0.3145,0.6688
700.2,0.3108,0.6692
700.5,0.3236,0.6625
700.7,0.3139,0.6524
700.9,0.2993,0.6393
701.2,0.3010,0.6480
701.4,0.2984,0.6466
701.6,0.2929,0.6363
701.9,0.2958,0.6298
702.1,0.2953,0.6262
702.3,0.2985,0.6332
702.6,0.2931,0.6321
702.8,0.2821,0.6188
703.0,0.2768,0.6246
703.3,0.2773,0.6184
703.5,0.2770,0.6262
703.7,0.2723,0.6298
704.0,0.2683,0.6281
704.2,0.2622,0.6262
704.4,0.2645,0.6298
704.7,0.2711,0.6341
704.9,0.2662,0.6374
705.1,0.2626,0.6329
705.4,0.2707,0.6548
705.6,0.2728,0.6535
705.8,0.2784,0.6571
706.1,0.2734,0.6632
706.3,0.2764,0.6486
706.5,0.2817,0.6595
706.8,0.2785,0.6701
707.0,0.2833,0.6735
707.2,0.2801,0.6765
707.5,0.2769,0.6769
707.7,0.2754,0.6646
707.9,0.2790,0.6716
708.2,0.2828,0.6678
708.4,0.2766,0.6786
708.6,0.2838,0.6792
708.9,0.2862,0.6774
709.1,0.2760,0.6949
709.3,0.2762,0.6982
709.6,0.2755,0.7005
709.8,0.2649,0.7021
710.1,0.2591,0.6911
710.3,0.2652,0.6917
710.5,0.2749,0.6923
710.8,0.2856,0.6904
711.0,0.2872,0.6837
711.2,0.2804,0.6799
711.5,0.2718,0.6798
711.7,0.2781,0.6911
711.9,0.2763,0.6890
712.2,0.2822,0.7076
712.4,0.2834,0.6941
712.6,0.2931,0.7085
712.9,0.2841,0.7031
713.1,0.2996,0.6999
713.3,0.2894,0.6893
713.6,0.2938,0.6915
713.8,0.2822,0.6915
714.0,0.2745,0.6891
714.3,0.2685,0.6812
714.5,0.2774,0.6892
714.7,0.2701,0.6889
715.0,0.2706,0.6828
715.2,0.2653,0.6846
715.4,0.2492,0.6837
715.7,0.2514,0.6764
715.9,0.2669,0.6971
716.1,0.2529,0.6775
716.4,0.2549,0.6709
716.6,0.2519,0.6724
716.8,0.2536,0.6726
717.1,0.2515,0.6627
717.3,0.2528,0.6481
717.6,0.2501,0.6420
717.8,0.2452,0.6214
718.0,0.2420,0.5965
718.3,0.2276,0.5849
718.5,0.2144,0.5582
718.7,0.2129,0.5329
719.0,0.2075,0.5184
719.2,0.2015,0.5077
719.4,0.1944,0.4833
719.7,0.1874,0.4631
719.9,0.1836,0.4486
720.1,0.1799,0.4349
720.4,0.1760,0.4179
720.6,0.1642,0.4133
720.8,0.1563,0.3951
721.1,0.1558,0.3856
721.3,0.1441,0.3728
721.5,0.1389,0.3657
721.8,0.1361,0.3676
722.0,0.1391,0.3703
722.2,0.1315,0.3767
722.5,0.1267,0.3909
722.7,0.1303,0.3944
723.0,0.1318,0.4132
723.2,0.1431,0.4213
723.4,0.1476,0.4410
723.7,0.1563,0.4433
723.9,0.1521,0.4521
724.1,0.1632,0.4577
724.4,0.1584,0.4596
724.6,0.1588,0.4530
724.8,0.1630,0.4499
725.1,0.1706,0.4387
725.3,0.1660,0.4454
725.5,0.1579,0.4295
725.8,0.1539,0.4264
726.0,0.1568,0.4216
726.2,0.1588,0.4190
726.5,0.1579,0.4229
726.7,0.1487,0.4243
726.9,0.1527,0.4133
727.2,0.1540,0.4154
727.4,0.1487,0.4076
727.6,0.1502,0.4151
727.9,0.1450,0.4044
728.1,0.1507,0.4043
728.4,0.1446,0.4084
728.6,0.1433,0.3971
728.8,0.1388,0.3918
729.1,0.1392,0.3857
729.3,0.1363,0.3864
729.5,0.1331,0.3915
729.8,0.1309,0.4054
730.0,0.1316,0.3922
730.2,0.1312,0.3902
730.5,0.1268,0.3835
730.7,0.1324,0.3877
730.9,0.1309,0.4029
731.2,0.1360,0.3906
731.4,0.1331,0.3971
731.6,0.1342,0.3891
731.9,0.1350,0.4019
732.1,0.1358,0.4003
732.4,0.1343,0.4069
732.6,0.1323,0.4007
732.8,0.1326,0.4014
733.1,0.1358,0.4044
733.3,0.1363,0.4100
733.5,0.1400,0.4265
733.8,0.1406,0.4342
734.0,0.1384,0.4400
734.2,0.1368,0.4358
734.5,0.1318,0.4443
734.7,0.1384,0.4537
734.9,0.1456,0.4656
735.2,0.1499,0.4723
735.4,0.1514,0.4904
735.6,0.1589,0.4937
735.9,0.1600,0.4968
736.1,0.1602,0.4958
736.4,0.1573,0.5012
736.6,0.1615,0.5068
736.8,0.1618,0.5117
737.1,0.1568,0.5140
737.3,0.1576,0.5097
737.5,0.1706,0.5135
737.8,0.1671,0.5165
738.0,0.1693,0.5276
738.2,0.1687,0.5285
738.5,0.1604,0.5351
738.7,0.1601,0.5374
738.9,0.1657,0.5423
739.2,0.1646,0.5315
739.4,0.1634,0.5383
739.6,0.1630,0.5248
739.9,0.1578,0.5289
740.1,0.1603,0.5356
740.4,0.1608,0.5416
740.6,0.1632,0.5366
740.8,0.1682,0.5473
741.1,0.1632,0.5491
741.3,0.1629,0.5453
741.5,0.1642,0.5480
741.8,0.1631,0.5445
742.0,0.1610,0.5542
742.2,0.1595,0.5563
742.5,0.1617,0.5546
742.7,0.1625,0.5682
742.9,0.1617,0.5555
743.2,0.1608,0.5545
743.4,0.1611,0.5649
743.7,0.1596,0.5656
743.9,0.1566,0.5560
744.1,0.1597,0.5639
744.4,0.1510,0.5686
744.6,0.1548,0.5766
744.8,0.1539,0.5656
745.1,0.1552,0.5743
745.3,0.1594,0.5700
745.5,0.1553,0.5693
745.8,0.1587,0.5663
746.0,0.1616,0.5667
746.2,0.1664,0.5780
746.5,0.1633,0.5715
746.7,0.1615,0.5768
747.0,0.1579,0.5740
747.2,0.1578,0.5813
747.4,0.1579,0.5783
747.7,0.1658,0.5751
747.9,0.1646,0.5701
748.1,0.1612,0.5730
748.4,0.1635,0.5728
748.6,0.1556,0.5577
748.8,0.1579,0.5664
749.1,0.1574,0.5731
749.3,0.1529,0.5705
749.5,0.1522,0.5673
749.8,0.1549,0.5684
750.0,0.1557,0.5667
750.3,0.1569,0.5627
750.5,0.1585,0.5631
750.7,0.1569,0.5635
751.0,0.1532,0.5587
751.2,0.1497,0.5619
751.4,0.1505,0.5622
751.7,0.1522,0.5481
751.9,0.1502,0.5549
752.1,0.1430,0.5583
752.4,0.1403,0.5578
752.6,0.1540,0.5571
752.8,0.1461,0.5520
753.1,0.1478,0.5542
753.3,0.1408,0.5600
753.6,0.1413,0.5588
753.8,0.1435,0.5582
754.0,0.1390,0.5530
754.3,0.1408,0.5511
754.5,0.1376,0.5525
754.7,0.1410,0.5384
755.0,0.1453,0.5395
755.2,0.1441,0.5394
755.4,0.1365,0.5531
755.7,0.1398,0.5266
755.9,0.1386,0.5383
756.2,0.1357,0.5453
756.4,0.1368,0.5420
756.6,0.1395,0.5337
756.9,0.1357,0.5416
757.1,0.1309,0.5350
757.3,0.1322,0.5457
757.6,0.1346,0.5447
757.8,0.1356,0.5395
758.0,0.1284,0.5317
758.3,0.1281,0.5284
758.5,0.1267,0.5266
758.8,0.1313,0.5321
759.0,0.1235,0.5336
759.2,0.1257,0.5359
759.5,0.1291,0.5218
759.7,0.1230,0.5246
759.9,0.1218,0.5164
760.2,0.1232,0.5119
760.4,0.1206,0.4999
760.6,0.1191,0.4612
760.9,0.1193,0.4282
761.1,0.1139,0.3969
761.4,0.1132,0.3724
761.6,0.1058,0.3375
761.8,0.0996,0.3194
762.1,0.0900,0.2994
762.3,0.0851,0.2810
762.5,0.0840,0.2671
762.8,0.0777,0.2664
763.0,0.0723,0.2582
763.2,0.0658,0.2527
763.5,0.0632,0.2277
763.7,0.0620,0.2185
764.0,0.0580,0.1986
764.2,0.0528,0.1875
764.4,0.0510,0.1744
764.7,0.0495,0.1696
764.9,0.0437,0.1694
765.1,0.0430,0.1594
765.4,0.0398,0.1624
765.6,0.0306,0.1608
765.8,0.0306,0.1579
766.1,0.0322,0.1528
766.3,0.0318,0.1639
766.6,0.0324,0.1731
766.8,0.0331,0.1811
767.0,0.0358,0.1893
767.3,0.0369,0.2019
767.5,0.0410,0.2142
767.7,0.0446,0.2267
768.0,0.0431,0.2451
768.2,0.0468,0.2560
768.4,0.0520,0.2725
768.7,0.0528,0.2866
768.9,0.0546,0.2948
769.2,0.0575,0.3126
769.4,0.0610,0.3262
769.6,0.0651,0.3317
769.9,0.0635,0.3457
770.1,0.0674,0.3615
770.3,0.0727,0.3755
770.6,0.0747,0.3798
770.8,0.0835,0.3939
771.1,0.0822,0.4016
771.3,0.0841,0.4115
771.5,0.0817,0.4239
771.8,0.0865,0.4330
772.0,0.0827,0.4319
772.2,0.0865,0.4383
772.5,0.0843,0.4424
772.7,0.0875,0.4497
772.9,0.0915,0.4474
773.2,0.0881,0.4531
773.4,0.0942,0.4581
773.7,0.0898,0.4607
773.9,0.0950,0.4647
774.1,0.0956,0.4647
774.4,0.0955,0.4605
774.6,0.0964,0.4702
774.8,0.0910,0.4767
775.1,0.0936,0.4677
775.3,0.0897,0.4685
775.6,0.0931,0.4697
775.8,0.0934,0.4691
776.0,0.0968,0.4643
776.3,0.0978,0.4623
776.5,0.0924,0.4697
776.7,0.0933,0.4750
777.0,0.0913,0.4659
777.2,0.0956,0.4665
777.4,0.0916,0.4704
777.7,0.0902,0.4532
777.9,0.0912,0.4531
778.2,0.0922,0.4568
778.4,0.0922,0.4614
778.6,0.0904,0.4545
778.9,0.0915,0.4597
779.1,0.0904,0.4634
779.3,0.0901,0.4533
779.6,0.0875,0.4556
779.8,0.0881,0.4561
780.1,0.0888,0.4431
780.3,0.0863,0.4522
780.5,0.0893,0.4555
780.8,0.0864,0.4526
781.0,0.0864,0.4433
781.2,0.0868,0.4489
781.5,0.0888,0.4601
781.7,0.0881,0.4576
782.0,0.0817,0.4491
782.2,0.0811,0.4487
782.4,0.0792,0.4450
782.7,0.0851,0.4454
782.9,0.0858,0.4511
783.1,0.0831,0.4485
783.4,0.0809,0.4440
783.6,0.0784,0.4468
783.9,0.0788,0.4458
784.1,0.0816,0.4538
784.3,0.0827,0.4420
784.6,0.0789,0.4497
784.8,0.0825,0.4406
785.0,0.0838,0.4437
785.3,0.0790,0.4410
785.5,0.0818,0.4436
785.7,0.0860,0.4304
786.0,0.0794,0.4326
786.2,0.0763,0.4278
786.5,0.0818,0.4376
786.7,0.0802,0.4237
786.9,0.0784,0.4382
787.2,0.0799,0.4293
787.4,0.0760,0.4324
787.6,0.0782,0.4281
787.9,0.0790,0.4221
788.1,0.0767,0.4213
788.4,0.0773,0.4194
788.6,0.0803,0.4025
788.8,0.0744,0.4128
789.1,0.0785,0.4078
789.3,0.0766,0.4092
789.5,0.0738,0.4071
789.8,0.0716,0.4169
790.0,0.0703,0.4053
790.3,0.0725,0.3963
790.5,0.0705,0.3963
790.7,0.0697,0.3940
791.0,0.0714,0.3885
791.2,0.0666,0.3916
791.4,0.0692,0.3932
791.7,0.0679,0.3796
791.9,0.0654,0.3834
792.2,0.0591,0.3745
792.4,0.0641,0.3708
792.6,0.0611,0.3722
792.9,0.0580,0.3682
793.1,0.0581,0.3675
793.3,0.0578,0.3716
793.6,0.0617,0.3737
793.8,0.0570,0.3718
794.1,0.0596,0.3670
794.3,0.0612,0.3651
794.5,0.0627,0.3660
794.8,0.0611,0.3640
795.0,0.0605,0.3662
795.3,0.0655,0.3651
795.5,0.0575,0.3733
795.7,0.0618,0.3667
796.0,0.0591,0.3645
796.2,0.0593,0.3660
796.4,0.0620,0.3609
796.7,0.0599,0.3611
796.9,0.0625,0.3643
797.2,0.0611,0.3564
797.4,0.0596,0.3570
797.6,0.0577,0.3533
797.9,0.0591,0.3505
798.1,0.0568,0.3514
798.3,0.0551,0.3503
798.6,0.0549,0.3494
798.8,0.0586,0.3555
799.1,0.0577,0.3564
799.3,0.0586,0.3572
799.5,0.0581,0.3523
799.8,0.0571,0.3576
800.0,0.0616,0.3538
800.2,0.0604,0.3556
800.5,0.0573,0.3640
800.7,0.0568,0.3520
801.0,0.0562,0.3560
801.2,0.0564,0.3549
801.4,0.0570,0.3405
801.7,0.0534,0.3452
801.9,0.0583,0.3449
802.1,0.0533,0.3415
802.4,0.0542,0.3380
802.6,0.0519,0.3347
802.9,0.0544,0.3347
803.1,0.0541,0.3384
803.3,0.0504,0.3405
803.6,0.0489,0.3394
803.8,0.0516,0.3296
804.1,0.0493,0.3285
804.3,0.0474,0.3287
804.5,0.0491,0.3353
804.8,0.0480,0.3347
805.0,0.0512,0.3268
805.2,0.0498,0.3266
805.5,0.0472,0.3257
805.7,0.0517,0.3335
806.0,0.0491,0.3321
806.2,0.0455,0.3296
806.4,0.0474,0.3324
806.7,0.0449,0.3293
806.9,0.0499,0.3338
807.1,0.0516,0.3303
807.4,0.0504,0.3267
807.6,0.0445,0.3351
807.9,0.0471,0.3335
808.1,0.0468,0.3344
808.3,0.0433,0.3349
808.6,0.0488,0.3255
808.8,0.0528,0.3306
809.1,0.0474,0.3294
809.3,0.0439,0.3237
809.5,0.0507,0.3196
809.8,0.0459,0.3258
810.0,0.0471,0.3258
810.2,0.0436,0.3205
810.5,0.0465,0.3193
810.7,0.0452,0.3179
811.0,0.0421,0.3114
811.2,0.0473,0.3145
811.4,0.0449,0.3067
811.7,0.0431,0.3139
811.9,0.0423,0.3079
812.1,0.0419,0.3101
812.4,0.0440,0.3077
812.6,0.0375,0.3010
812.9,0.0463,0.2941
813.1,0.0424,0.3025
813.3,0.0415,0.2967
813.6,0.0415,0.2946
813.8,0.0451,0.2863
814.1,0.0405,0.2870
814.3,0.0401,0.2793
814.5,0.0414,0.2799
814.8,0.0404,0.2562
815.0,0.0371,0.2615
815.2,0.0397,0.2572
815.5,0.0365,0.2494
815.7,0.0345,0.2488
816.0,0.0334,0.2438
816.2,0.0340,0.2379
816.4,0.0378,0.2428
816.7,0.0325,0.2292
816.9,0.0340,0.2219
817.2,0.0303,0.2195
817.4,0.0306,0.2103
817.6,0.0301,0.2036
817.9,0.0331,0.2036
818.1,0.0308,0.2032
818.3,0.0282,0.2041
818.6,0.0257,0.1997
818.8,0.0278,0.1900
819.1,0.0239,0.1859
819.3,0.0258,0.1890
819.5,0.0231,0.1835
819.8,0.0228,0.1852
820.0,0.0254,0.1843
820.3,0.0261,0.1785
820.5,0.0211,0.1869
820.7,0.0247,0.1794
821.0,0.0221,0.1733
821.2,0.0222,0.1754
821.5,0.0240,0.1849
821.7,0.0227,0.1833
821.9,0.0223,0.1905
822.2,0.0235,0.1917
822.4,0.0224,0.1963
822.6,0.0233,0.1913
822.9,0.0210,0.1942
823.1,0.0240,0.1963
823.4,0.0227,0.1939
823.6,0.0231,0.1857
823.8,0.0203,0.1745
824.1,0.0220,0.1688
824.3,0.0211,0.1680
824.6,0.0234,0.1682
824.8,0.0183,0.1713
825.0,0.0220,0.1767
825.3,0.0208,0.1824
825.5,0.0243,0.1890
825.7,0.0234,0.1862
826.0,0.0247,0.1974
826.2,0.0213,0.1947
826.5,0.0223,0.2012
826.7,0.0219,0.2009
826.9,0.0238,0.1983
827.2,0.0248,0.1933
827.4,0.0222,0.1901
827.7,0.0243,0.1997
827.9,0.0247,0.1926
828.1,0.0186,0.1985
828.4,0.0198,0.1990
828.6,0.0222,0.1933
828.9,0.0211,0.1846
829.1,0.0226,0.1882
829.3,0.0235,0.1898
829.6,0.0201,0.1884
829.8,0.0244,0.1904
830.0,0.0230,0.1890
830.3,0.0207,0.1888
830.5,0.0206,0.1836
830.8,0.0235,0.1900
831.0,0.0233,0.1954
831.2,0.0258,0.1968
831.5,0.0236,0.1937
831.7,0.0232,0.1944
832.0,0.0221,0.1962
832.2,0.0242,0.1976
832.4,0.0235,0.2023
832.7,0.0224,0.1944
832.9,0.0205,0.2016
833.2,0.0207,0.1959
833.4,0.0187,0.1913
833.6,0.0219,0.1939
833.9,0.0179,0.1972
834.1,0.0210,0.1969
834.4,0.0218,0.1968
834.6,0.0227,0.1933
834.8,0.0175,0.1962
835.1,0.0207,0.1952
835.3,0.0237,0.1989
835.5,0.0209,0.1971
835.8,0.0223,0.2003
836.0,0.0245,0.2022
836.3,0.0216,0.2012
836.5,0.0222,0.2031
836.7,0.0221,0.2108
837.0,0.0222,0.2050
837.2,0.0201,0.2069
837.5,0.0222,0.2025
837.7,0.0231,0.2014
837.9,0.0217,0.2070
838.2,0.0227,0.2088
838.4,0.0235,0.2105
838.7,0.0225,0.2080
838.9,0.0218,0.2108
839.1,0.0212,0.2131
839.4,0.0235,0.2156
839.6,0.0214,0.2145
839.9,0.0227,0.2081
840.1,0.0256,0.2169
840.3,0.0231,0.2159
840.6,0.0241,0.2247
840.8,0.0235,0.2243
841.0,0.0217,0.2268
841.3,0.0226,0.2185
841.5,0.0201,0.2289
841.8,0.0223,0.2253
842.0,0.0242,0.2303
842.2,0.0254,0.2277
842.5,0.0217,0.2272
842.7,0.0199,0.2312
843.0,0.0214,0.2295
843.2,0.0235,0.2249
843.4,0.0243,0.2334
843.7,0.0206,0.2340
843.9,0.0193,0.2296
844.2,0.0224,0.2309
844.4,0.0221,0.2325
844.6,0.0209,0.2353
844.9,0.0226,0.2317
845.1,0.0242,0.2285
845.4,0.0233,0.2271
845.6,0.0224,0.2285
845.8,0.0223,0.2305
846.1,0.0231,0.2269
846.3,0.0237,0.2332
846.6,0.0215,0.2281
846.8,0.0209,0.2377
847.0,0.0232,0.2356
847.3,0.0253,0.2324
847.5,0.0209,0.2346
847.8,0.0245,0.2295
848.0,0.0231,0.2332
848.2,0.0192,0.2368
848.5,0.0207,0.2353
848.7,0.0212,0.2352
849.0,0.0199,0.2309
849.2,0.0204,0.2369
849.4,0.0226,0.2364
849.7,0.0217,0.2333
849.9,0.0214,0.2368
850.2,0.0230,0.2441
850.4,0.0210,0.2378
850.6,0.0213,0.2356
850.9,0.0235,0.2306
851.1,0.0224,0.2264
851.3,0.0204,0.2251
851.6,0.0219,0.2297
851.8,0.0214,0.2277
852.1,0.0204,0.2271
852.3,0.0193,0.2275
852.5,0.0179,0.2270
852.8,0.0194,0.2266
853.0,0.0195,0.2261
853.3,0.0217,0.2274
853.5,0.0166,0.2270
853.7,0.0208,0.2237
854.0,0.0197,0.2222
854.2,0.0205,0.2252
854.5,0.0184,0.2220
854.7,0.0188,0.2221
854.9,0.0192,0.2211
855.2,0.0172,0.2109
855.4,0.0156,0.2065
855.7,0.0209,0.2091
855.9,0.0191,0.2065
856.1,0.0193,0.2070
856.4,0.0174,0.2109
856.6,0.0189,0.2030
856.9,0.0160,0.2081
857.1,0.0187,0.2050
857.3,0.0179,0.2089
857.6,0.0197,0.2153
857.8,0.0173,0.2117
858.1,0.0168,0.2140
858.3,0.0161,0.2134
858.5,0.0178,0.2133
858.8,0.0162,0.2122
859.0,0.0165,0.2126
859.3,0.0169,0.2112
859.5,0.0162,0.2132
859.7,0.0159,0.2132
860.0,0.0168,0.2079
860.2,0.0178,0.2099
860.5,0.0191,0.2117
860.7,0.0142,0.2105
860.9,0.0156,0.2150
861.2,0.0179,0.2106
861.4,0.0186,0.2078
861.7,0.0172,0.2105
861.9,0.0180,0.2093
862.1,0.0148,0.2044
862.4,0.0158,0.2044
862.6,0.0160,0.2082
862.9,0.0165,0.2048
863.1,0.0151,0.2034
863.3,0.0156,0.2017
863.6,0.0159,0.2073
863.8,0.0147,0.2006
864.1,0.0151,0.2042
864.3,0.0163,0.2046
864.5,0.0127,0.2073
864.8,0.0154,0.2013
865.0,0.0153,0.2032
865.3,0.0174,0.2060
865.5,0.0160,0.2084
865.7,0.0181,0.2071
866.0,0.0123,0.2025
866.2,0.0181,0.1982
866.5,0.0160,0.2026
866.7,0.0190,0.2004
866.9,0.0157,0.1976
867.2,0.0150,0.1949
867.4,0.0154,0.1893
867.7,0.0160,0.1871
867.9,0.0129,0.1871
868.1,0.0168,0.1866
868.4,0.0147,0.1897
868.6,0.0167,0.1858
868.9,0.0169,0.1891
869.1,0.0145,0.1901
869.4,0.0155,0.1905
869.6,0.0151,0.1886
869.8,0.0140,0.1869
870.1,0.0151,0.1872
870.3,0.0135,0.1883
870.6,0.0140,0.1814
870.8,0.0134,0.1832
871.0,0.0172,0.1854
871.3,0.0157,0.1867
871.5,0.0164,0.1849
871.8,0.0139,0.1843
872.0,0.0152,0.1818
872.2,0.0163,0.1803
872.5,0.0147,0.1828
872.7,0.0126,0.1803
873.0,0.0148,0.1792
873.2,0.0109,0.1831
873.4,0.0159,0.1790
873.7,0.0159,0.1853
873.9,0.0141,0.1844
874.2,0.0125,0.1814
874.4,0.0147,0.1835
874.6,0.0131,0.1783
874.9,0.0162,0.1829
875.1,0.0129,0.1841
875.4,0.0131,0.1770
875.6,0.0141,0.1829
875.8,0.0119,0.1805
876.1,0.0110,0.1817
876.3,0.0127,0.1778
876.6,0.0123,0.1796
876.8,0.0127,0.1771
877.0,0.0117,0.1790
877.3,0.0138,0.1839
877.5,0.0103,0.1817
877.8,0.0152,0.1771
878.0,0.0114,0.1794
878.2,0.0128,0.1808
878.5,0.0144,0.1770
878.7,0.0128,0.1811
879.0,0.0143,0.1741
879.2,0.0106,0.1772
879.5,0.0125,0.1738
879.7,0.0111,0.1720
879.9,0.0121,0.1720
880.2,0.0120,0.1697
880.4,0.0150,0.1725
880.7,0.0096,0.1666
880.9,0.0127,0.1741
881.1,0.0104,0.1726
881.4,0.0118,0.1722
881.6,0.0098,0.1696
881.9,0.0130,0.1712
882.1,0.0100,0.1685
882.3,0.0122,0.1679
882.6,0.0112,0.1738
882.8,0.0111,0.1677
883.1,0.0092,0.1642
883.3,0.0127,0.1707
883.5,0.0090,0.1688
883.8,0.0118,0.1694
884.0,0.0093,0.1704
884.3,0.0085,0.1668
884.5,0.0114,0.1677
884.7,0.0114,0.1673
885.0,0.0099,0.1735
885.2,0.0107,0.1671
885.5,0.0095,0.1688
885.7,0.0128,0.1635
886.0,0.0115,0.1640
886.2,0.0093,0.1715
886.4,0.0106,0.1664
886.7,0.0127,0.1684
886.9,0.0113,0.1618
887.2,0.0114,0.1653
887.4,0.0126,0.1656
887.6,0.0119,0.1658
887.9,0.0103,0.1621
888.1,0.0116,0.1666
888.4,0.0086,0.1678
888.6,0.0111,0.1608
888.8,0.0101,0.1560
889.1,0.0090,0.1596
889.3,0.0099,0.1605
889.6,0.0109,0.1625
889.8,0.0095,0.1581
890.0,0.0093,0.1580
890.3,0.0124,0.1580
890.5,0.0121,0.1607
890.8,0.0097,0.1618
891.0,0.0079,0.1615
891.3,0.0099,0.1645
891.5,0.0097,0.1599
891.7,0.0120,0.1623
892.0,0.0093,0.1542
892.2,0.0104,0.1610
892.5,0.0123,0.1558
892.7,0.0097,0.1568
892.9,0.0109,0.1515
893.2,0.0081,0.1545
893.4,0.0123,0.1518
893.7,0.0081,0.1566
893.9,0.0096,0.1465
894.1,0.0108,0.1510
894.4,0.0110,0.1470
894.6,0.0080,0.1473
894.9,0.0063,0.1452
895.1,0.0064,0.1449
895.4,0.0116,0.1418
895.6,0.0084,0.1423
895.8,0.0081,0.1381
896.1,0.0078,0.1363
896.3,0.0105,0.1341
896.6,0.0087,0.1343
896.8,0.0099,0.1306
897.0,0.0104,0.1312
897.3,0.0095,0.1253
897.5,0.0086,0.1200
897.8,0.0073,0.1170
898.0,0.0096,0.1198
898.2,0.0078,0.1125
898.5,0.0080,0.1173
898.7,0.0059,0.1134
899.0,0.0062,0.1124
899.2,0.0102,0.1143
899.5,0.0060,0.1116
899.7,0.0063,0.1103
899.9,0.0038,0.1007
900.2,0.0066,0.1056
900.4,0.0035,0.0965
900.7,0.0051,0.1007
900.9,0.0067,0.0989
901.1,0.0074,0.0931
901.4,0.0058,0.0944
901.6,0.0057,0.0988
901.9,0.0038,0.0937
902.1,0.0054,0.0940
902.3,0.0054,0.0894
902.6,0.0052,0.0879
902.8,0.0051,0.0861
903.1,0.0026,0.0842
903.3,0.0041,0.0847
903.6,0.0080,0.0822
903.8,0.0051,0.0819
904.0,0.0067,0.0816
904.3,0.0065,0.0816
904.5,0.0055,0.0802
904.8,0.0038,0.0852
905.0,0.0057,0.0809
905.2,0.0031,0.0815
905.5,0.0046,0.0848
905.7,0.0032,0.0835
906.0,0.0053,0.0870
906.2,0.0049,0.0863
906.5,0.0049,0.0870
906.7,0.0050,0.0897
906.9,0.0076,0.0848
907.2,0.0064,0.0856
907.4,0.0049,0.0881
907.7,0.0047,0.0837
907.9,0.0052,0.0868
908.1,0.0021,0.0851
908.4,0.0034,0.0781
908.6,0.0045,0.0804
908.9,0.0041,0.0775
909.1,0.0019,0.0777
909.4,0.0050,0.0807
909.6,0.0038,0.0783
909.8,0.0060,0.0770
910.1,0.0050,0.0756
910.3,0.0043,0.0769
910.6,0.0044,0.0749
910.8,0.0015,0.0752
911.0,0.0041,0.0779
911.3,0.0023,0.0724
911.5,0.0020,0.0730
911.8,0.0038,0.0746
912.0,0.0033,0.0717
912.3,0.0041,0.0737
912.5,0.0019,0.0742
912.7,0.0067,0.0776
913.0,0.0033,0.0715
913.2,0.0030,0.0707
913.5,0.0033,0.0755
913.7,0.0042,0.0738
913.9,0.0058,0.0748
914.2,0.0038,0.0742
914.4,0.0042,0.0687
914.7,0.0025,0.0651
914.9,0.0029,0.0663
915.2,0.0042,0.0684
915.4,0.0025,0.0664
915.6,0.0001,0.0667
915.9,0.0035,0.0618
916.1,0.0050,0.0624
916.4,0.0025,0.0583
916.6,0.0054,0.0602
916.8,0.0034,0.0552
917.1,0.0026,0.0610
917.3,0.0044,0.0635
917.6,0.0006,0.0597
917.8,0.0017,0.0590
918.1,0.0029,0.0581
918.3,-0.0006,0.0594
918.5,0.0032,0.0559
918.8,0.0046,0.0572
919.0,0.0030,0.0559
919.3,0.0010,0.0580
919.5,0.0042,0.0553
919.7,0.0014,0.0601
920.0,0.0021,0.0612
920.2,0.0009,0.0593
920.5,0.0041,0.0622
920.7,0.0034,0.0607
921.0,0.0044,0.0631
921.2,0.0031,0.0603
921.4,0.0049,0.0628
921.7,0.0009,0.0651
921.9,0.0054,0.0619
922.2,0.0036,0.0628
922.4,0.0028,0.0610
922.7,0.0035,0.0629
922.9,0.0026,0.0638
923.1,0.0048,0.0625
923.4,0.0028,0.0666
923.6,0.0026,0.0637
923.9,0.0041,0.0656
924.1,0.0037,0.0657
924.3,0.0033,0.0655
924.6,0.0031,0.0657
924.8,0.0037,0.0641
925.1,0.0041,0.0662
925.3,0.0052,0.0643
925.6,0.0041,0.0657
925.8,0.0032,0.0611
926.0,0.0033,0.0693
926.3,0.0018,0.0682
926.5,0.0038,0.0671
926.8,0.0063,0.0616
927.0,0.0049,0.0640
927.2,0.0033,0.0667
927.5,0.0042,0.0663
927.7,0.0051,0.0683
928.0,0.0025,0.0634
928.2,0.0039,0.0698
928.5,0.0006,0.0655
928.7,0.0045,0.0639
928.9,0.0019,0.0648
929.2,0.0067,0.0617
929.4,-0.0011,0.0591
929.7,0.0011,0.0593
929.9,0.0036,0.0586
930.2,0.0067,0.0563
930.4,0.0020,0.0585
930.6,0.0018,0.0551
930.9,0.0042,0.0549
931.1,-0.0001,0.0553
931.4,0.0020,0.0468
931.6,0.0060,0.0473
931.9,0.0013,0.0459
932.1,0.0042,0.0465
932.3,0.0028,0.0456
932.6,0.0007,0.0443
932.8,0.0012,0.0455
933.1,0.0006,0.0405
933.3,0.0023,0.0364
933.5,0.0047,0.0358
933.8,-0.0009,0.0343
934.0,0.0010,0.0335
934.3,0.0011,0.0316
934.5,0.0032,0.0303
934.8,-0.0009,0.0277
935.0,0.0029,0.0296
935.2,0.0007,0.0256
935.5,0.0038,0.0276
935.7,0.0003,0.0229
936.0,0.0025,0.0255
936.2,-0.0001,0.0247
936.5,0.0003,0.0201
936.7,0.0009,0.0207
936.9,0.0013,0.0200
937.2,0.0007,0.0198
937.4,0.0005,0.0207
937.7,0.0008,0.0164
937.9,0.0006,0.0185
938.2,0.0012,0.0177
938.4,0.0018,0.0159
938.6,-0.0028,0.0141
938.9,0.0036,0.0151
939.1,0.0007,0.0119
939.4,0.0033,0.0105
939.6,0.0015,0.0105
939.9,0.0005,0.0117
940.1,0.0019,0.0109
940.3,0.0011,0.0146
940.6,0.0032,0.0104
940.8,0.0001,0.0113
941.1,0.0009,0.0148
941.3,0.0029,0.0099
941.5,0.0013,0.0097
941.8,-0.0015,0.0087
942.0,-0.0008,0.0134
942.3,-0.0013,0.0084
942.5,0.0012,0.0115
942.8,0.0021,0.0084
943.0,-0.0003,0.0104
943.2,-0.0025,0.0100
943.5,0.0028,0.0108
943.7,0.0006,0.0111
944.0,0.0023,0.0121
944.2,-0.0011,0.0092
944.5,-0.0007,0.0090
944.7,-0.0006,0.0116
944.9,-0.0003,0.0128
945.2,-0.0001,0.0094
945.4,-0.0003,0.0110
945.7,-0.0007,0.0085
945.9,0.0009,0.0080
946.2,0.0020,0.0109
946.4,0.0025,0.0101
946.6,0.0004,0.0084
946.9,0.0023,0.0089
947.1,-0.0008,0.0067
947.4,-0.0003,0.0115
947.6,0.0024,0.0108
947.9,-0.0009,0.0117
948.1,0.0003,0.0099
948.3,-0.0027,0.0098
948.6,-0.0021,0.0098
948.8,0.0019,0.0098
949.1,-0.0003,0.0114
949.3,0.0019,0.0106
949.6,0.0006,0.0106
949.8,0.0037,0.0134
950.0,0.0020,0.0081
950.3,0.0016,0.0104
950.5,0.0023,0.0102
950.8,0.0023,0.0120
951.0,0.0002,0.0092
951.3,0.0031,0.0091
951.5,-0.0018,0.0100
951.7,-0.0015,0.0110
952.0,-0.0018,0.0113
952.2,0.0007,0.0134
952.5,-0.0025,0.0123
952.7,0.0008,0.0107
953.0,0.0025,0.0114
953.2,0.0018,0.0094
953.4,-0.0014,0.0114
953.7,0.0023,0.0081
953.9,0.0006,0.0089
954.2,-0.0006,0.0109
954.4,0.0014,0.0115
954.7,0.0021,0.0109
954.9,0.0011,0.0106
955.1,0.0019,0.0097
955.4,0.0022,0.0114
955.6,0.0001,0.0082
955.9,-0.0014,0.0083
956.1,0.0041,0.0115
956.4,0.0008,0.0116
956.6,-0.0002,0.0103
956.8,0.0020,0.0100
957.1,-0.0003,0.0122
957.3,0.0024,0.0110
957.6,0.0022,0.0088
957.8,0.0006,0.0108
958.1,0.0023,0.0116
958.3,0.0010,0.0139
958.5,-0.0004,0.0094
958.8,-0.0010,0.0095
959.0,0.0037,0.0132
959.3,0.0016,0.0140
959.5,0.0021,0.0118
959.8,-0.0001,0.0134
960.0,0.0011,0.0147
960.2,0.0034,0.0126
960.5,-0.0011,0.0122
960.7,0.0015,0.0135
961.0,0.0010,0.0120
961.2,-0.0009,0.0093
961.5,0.0010,0.0134
961.7,-0.0004,0.0131
961.9,0.0018,0.0143
962.2,0.0000,0.0151
962.4,0.0007,0.0131
962.7,0.0021,0.0112
962.9,-0.0020,0.0137
963.2,0.0025,0.0145
963.4,0.0044,0.0146
963.7,-0.0024,0.0148
963.9,0.0016,0.0191
964.1,0.0015,0.0169
964.4,0.0009,0.0149
964.6,0.0038,0.0160
964.9,-0.0001,0.0177
965.1,0.0006,0.0150
965.4,-0.0003,0.0170
965.6,-0.0016,0.0137
965.8,0.0035,0.0180
966.1,-0.0012,0.0149
966.3,0.0006,0.0171
966.6,-0.0004,0.0176
966.8,-0.0002,0.0207
967.1,0.0015,0.0160
967.3,0.0028,0.0182
967.5,0.0026,0.0158
967.8,-0.0007,0.0215
968.0,0.0010,0.0192
968.3,0.0022,0.0170
968.5,-0.0013,0.0217
968.8,0.0035,0.0247
969.0,-0.0004,0.0237
969.2,0.0023,0.0228
969.5,-0.0009,0.0227
969.7,0.0030,0.0251
970.0,0.0017,0.0252
970.2,0.0008,0.0237
970.5,-0.0002,0.0257
970.7,0.0016,0.0261
970.9,0.0001,0.0276
971.2,0.0029,0.0280
971.4,-0.0028,0.0296
971.7,0.0023,0.0282
971.9,0.0021,0.0278
972.2,0.0020,0.0274
972.4,0.0018,0.0314
972.7,0.0007,0.0322
972.9,0.0020,0.0318
973.1,0.0003,0.0323
973.4,0.0009,0.0342
973.6,0.0019,0.0325
973.9,0.0002,0.0300
974.1,0.0025,0.0317
974.4,0.0001,0.0306
974.6,0.0020,0.0333
974.8,0.0011,0.0328
975.1,0.0006,0.0310
975.3,0.0007,0.0333
975.6,0.0012,0.0290
975.8,0.0020,0.0329
976.1,0.0011,0.0345
976.3,0.0006,0.0297
976.5,0.0007,0.0339
976.8,0.0004,0.0316
977.0,0.0032,0.0326
977.3,0.0018,0.0320
977.5,0.0045,0.0338
977.8,0.0032,0.0347
978.0,0.0026,0.0349
978.3,0.0002,0.0333
978.5,0.0020,0.0339
978.7,-0.0004,0.0370
979.0,0.0008,0.0354
979.2,-0.0006,0.0313
979.5,0.0015,0.0382
979.7,0.0016,0.0358
980.0,0.0009,0.0333
980.2,0.0000,0.0358
980.4,-0.0004,0.0330
980.7,0.0020,0.0361
980.9,0.0031,0.0346
981.2,-0.0010,0.0332
981.4,0.0026,0.0334
981.7,0.0000,0.0333
981.9,0.0011,0.0361
982.2,0.0017,0.0377
982.4,0.0016,0.0363
982.6,-0.0006,0.0338
982.9,0.0003,0.0396
983.1,0.0009,0.0350
983.4,0.0018,0.0342
983.6,0.0020,0.0318
983.9,0.0042,0.0363
984.1,0.0006,0.0335
984.3,0.0012,0.0333
984.6,0.0022,0.0379
984.8,0.0010,0.0365
985.1,0.0017,0.0370
985.3,0.0015,0.0392
985.6,-0.0002,0.0358
985.8,0.0009,0.0342
986.1,0.0021,0.0379
986.3,0.0022,0.0388
986.5,0.0010,0.0355
986.8,0.0029,0.0358
987.0,0.0031,0.0370
987.3,0.0011,0.0419
987.5,0.0028,0.0379
987.8,-0.0009,0.0392
988.0,0.0019,0.0384
988.2,0.0041,0.0421
988.5,-0.0019,0.0387
988.7,0.0025,0.0408
989.0,-0.0001,0.0377
989.2,0.0002,0.0387
989.5,0.0006,0.0425
989.7,0.0027,0.0426
990.0,0.0006,0.0408
990.2,-0.0005,0.0398
990.4,-0.0003,0.0436
990.7,0.0012,0.0426
990.9,0.0004,0.0387
991.2,-0.0002,0.0420
991.4,0.0013,0.0399
991.7,0.0023,0.0412
991.9,-0.0017,0.0410
992.1,0.0017,0.0435
992.4,0.0018,0.0434
992.6,0.0012,0.0441
992.9,0.0019,0.0391
993.1,0.0003,0.0400
993.4,0.0056,0.0440
993.6,0.0000,0.0422
993.9,0.0003,0.0428
994.1,0.0043,0.0452
994.3,0.0026,0.0453
994.6,0.0018,0.0435
994.8,-0.0011,0.0408
995.1,0.0018,0.0435
995.3,0.0007,0.0424
995.6,0.0019,0.0425
995.8,0.0009,0.0436
996.1,0.0018,0.0425
996.3,0.0026,0.0434
996.5,0.0020,0.0406
996.8,0.0012,0.0396
997.0,0.0023,0.0450
997.3,0.0036,0.0443
997.5,0.0026,0.0422
997.8,0.0003,0.0453
998.0,-0.0002,0.0419
998.2,0.0013,0.0429
998.5,0.0017,0.0439
998.7,0.0006,0.0450
999.0,0.0027,0.0449
999.2,0.0016,0.0411
999.5,0.0012,0.0428
999.7,0.0014,0.0421
1000.0,0.0020,0.0434
1000.2,0.0008,0.0421
1000.4,0.0016,0.0440
1000.7,0.0023,0.0410
1000.9,0.0032,0.0421
1001.2,-0.0002,0.0411
1001.4,0.0018,0.0398
1001.7,0.0022,0.0406
1001.9,0.0017,0.0389
1002.2,0.0025,0.0400
1002.4,-0.0011,0.0389
1002.6,0.0014,0.0395
1002.9,0.0009,0.0404
1003.1,0.0018,0.0396
1003.4,0.0000,0.0405
1003.6,-0.0006,0.0400
1003.9,0.0025,0.0431
1004.1,-0.0001,0.0393
1004.4,0.0015,0.0407
1004.6,0.0028,0.0382
1004.8,-0.0014,0.0380
1005.1,0.0013,0.0404
1005.3,-0.0013,0.0405
1005.6,0.0019,0.0388
1005.8,0.0018,0.0381
1006.1,0.0035,0.0386
1006.3,0.0013,0.0380
1006.6,0.0016,0.0385
1006.8,0.0000,0.0387
1007.0,0.0039,0.0398
1007.3,0.0002,0.0364
1007.5,-0.0003,0.0390
1007.8,0.0019,0.0367
1008.0,-0.0005,0.0357
1008.3,0.0013,0.0401
1008.5,0.0025,0.0374
1008.8,-0.0009,0.0359
1009.0,0.0009,0.0361
1009.2,0.0009,0.0327
1009.5,0.0021,0.0333
1009.7,0.0005,0.0365
1010.0,-0.0014,0.0367
1010.2,0.0010,0.0357
1010.5,0.0000,0.0334
1010.7,0.0015,0.0322
1011.0,0.0009,0.0350
1011.2,0.0028,0.0338
1011.4,-0.0001,0.0331
1011.7,0.0020,0.0338
1011.9,0.0025,0.0327
1012.2,0.0013,0.0331
1012.4,0.0005,0.0353
1012.7,-0.0003,0.0309
1012.9,0.0017,0.0331
1013.2,0.0011,0.0349
1013.4,-0.0001,0.0333
1013.6,0.0016,0.0293
1013.9,0.0020,0.0334
1014.1,-0.0013,0.0310
1014.4,0.0011,0.0309
1014.6,0.0003,0.0329
1014.9,0.0029,0.0317
1015.1,0.0016,0.0341
1015.4,0.0001,0.0319
1015.6,0.0005,0.0312
1015.8,0.0038,0.0277
1016.1,0.0001,0.0326
1016.3,0.0021,0.0305
1016.6,0.0014,0.0265
1016.8,0.0010,0.0309
1017.1,0.0015,0.0325
1017.3,-0.0013,0.0326
1017.6,0.0008,0.0280
1017.8,0.0010,0.0322
1018.0,0.0008,0.0297
1018.3,0.0018,0.0309
1018.5,-0.0005,0.0278
1018.8,0.0026,0.0275
1019.0,0.0026,0.0308
1019.3,0.0020,0.0287
1019.5,0.0006,0.0277
1019.8,0.0015,0.0307
1020.0,0.0007,0.0272
1020.2,0.0025,0.0301
1020.5,0.0021,0.0320
1020.7,0.0034,0.0300
1021.0,-0.0011,0.0307
1021.2,-0.0018,0.0275
1021.5,0.0002,0.0301
1021.7,0.0023,0.0268
1022.0,-0.0001,0.0280
1022.2,0.0024,0.0310
1022.4,0.0019,0.0279
1022.7,-0.0016,0.0278
1022.9,-0.0002,0.0290
1023.2,0.0016,0.0279
1023.4,0.0024,0.0288
1023.7,0.0019,0.0282
1023.9,0.0032,0.0271
1024.2,0.0009,0.0154
1024.4,-0.0006,-0.0016
1024.7,-0.0003,-0.0008
1024.9,-0.0006,0.0025
1025.1,-0.0006,-0.0002
1025.4,0.0002,0.0005
1025.6,-0.0020,0.0005
